Frequency (Hz)	Level (dB)
0.976562	-93.331947
1.953125	-93.296059
2.929688	-93.630409
3.906250	-91.971657
4.882812	-92.633507
5.859375	-92.002014
6.835938	-90.414719
7.812500	-91.657341
8.789062	-90.852951
9.765625	-89.836990
10.742188	-87.342232
11.718750	-84.643791
12.695312	-86.881058
13.671875	-86.023354
14.648438	-85.856720
15.625000	-84.558426
16.601562	-84.385414
17.578125	-84.628433
18.554688	-83.077919
19.531250	-83.679504
20.507812	-84.248962
21.484375	-80.652382
22.460938	-81.568069
23.437500	-80.347855
24.414062	-78.695908
25.390625	-79.335464
26.367188	-78.840065
27.343750	-79.360344
28.320312	-79.800705
29.296875	-78.189507
30.273438	-79.371910
31.250000	-79.492645
32.226562	-80.115898
33.203125	-79.904755
34.179688	-78.983688
35.156250	-79.583687
36.132812	-79.689606
37.109375	-79.047302
38.085938	-79.691124
39.062500	-79.975662
40.039062	-78.314545
41.015625	-77.836754
41.992188	-77.128448
42.968750	-75.564270
43.945312	-79.080841
44.921875	-78.550018
45.898438	-76.586304
46.875000	-77.209305
47.851562	-77.608688
48.828125	-75.828156
49.804688	-75.469467
50.781250	-75.690964
51.757812	-75.446846
52.734375	-74.612274
53.710938	-74.238098
54.687500	-74.386276
55.664062	-73.882210
56.640625	-73.934387
57.617188	-73.657318
58.593750	-73.876404
59.570312	-72.805206
60.546875	-72.190125
61.523438	-71.598145
62.500000	-72.196747
63.476562	-71.746033
64.453125	-75.133919
65.429688	-75.468163
66.406250	-74.685791
67.382812	-75.243095
68.359375	-76.103592
69.335938	-74.149338
70.312500	-74.307800
71.289062	-74.377953
72.265625	-74.205872
73.242188	-73.513206
74.218750	-74.350960
75.195312	-73.369072
76.171875	-74.597778
77.148438	-74.571404
78.125000	-74.202423
79.101562	-76.523605
80.078125	-75.812866
81.054688	-76.919640
82.031250	-76.322220
83.007812	-76.241302
83.984375	-75.643105
84.960938	-74.155289
85.937500	-74.269684
86.914062	-73.777130
87.890625	-74.638107
88.867188	-75.779350
89.843750	-74.730179
90.820312	-75.361122
91.796875	-74.869972
92.773438	-75.532745
93.750000	-75.685760
94.726562	-76.796898
95.703125	-76.484390
96.679688	-75.815292
97.656250	-77.180222
98.632812	-77.226440
99.609375	-76.683624
100.585938	-76.211601
101.562500	-75.041924
102.539062	-75.475235
103.515625	-75.387505
104.492188	-75.553452
105.468750	-75.247925
106.445312	-75.760468
107.421875	-76.898384
108.398438	-76.597595
109.375000	-75.565071
110.351562	-75.373238
111.328125	-76.180901
112.304688	-76.668152
113.281250	-75.500107
114.257812	-73.792000
115.234375	-76.556114
116.210938	-75.855659
117.187500	-75.541512
118.164062	-76.228096
119.140625	-75.649422
120.117188	-74.648964
121.093750	-76.249367
122.070312	-76.077240
123.046875	-76.011147
124.023438	-76.410736
125.000000	-76.681961
125.976562	-77.063507
126.953125	-76.497513
127.929688	-77.508461
128.906250	-75.990723
129.882812	-76.254257
130.859375	-76.622246
131.835938	-76.900352
132.812500	-75.845116
133.789062	-75.859657
134.765625	-76.895004
135.742188	-75.790009
136.718750	-77.057114
137.695312	-77.359543
138.671875	-77.603310
139.648438	-76.470070
140.625000	-75.598518
141.601562	-76.840614
142.578125	-77.021606
143.554688	-76.587120
144.531250	-76.580307
145.507812	-76.169952
146.484375	-76.245552
147.460938	-77.676514
148.437500	-77.413376
149.414062	-75.815376
150.390625	-77.169609
151.367188	-78.445793
152.343750	-77.172882
153.320312	-77.798317
154.296875	-77.101814
155.273438	-76.438034
156.250000	-76.790672
157.226562	-78.574936
158.203125	-77.609612
159.179688	-77.553703
160.156250	-76.414658
161.132812	-77.901497
162.109375	-75.473839
163.085938	-77.209778
164.062500	-77.075600
165.039062	-77.166908
166.015625	-76.175552
166.992188	-75.905746
167.968750	-76.786568
168.945312	-79.284225
169.921875	-77.019081
170.898438	-77.031136
171.875000	-77.744591
172.851562	-77.104965
173.828125	-77.139648
174.804688	-77.353569
175.781250	-76.919296
176.757812	-76.959053
177.734375	-77.100433
178.710938	-77.807228
179.687500	-76.949005
180.664062	-76.846344
181.640625	-78.158363
182.617188	-77.279076
183.593750	-77.634270
184.570312	-77.094597
185.546875	-77.103416
186.523438	-77.516174
187.500000	-78.419579
188.476562	-77.252235
189.453125	-77.292763
190.429688	-76.871696
191.406250	-77.678543
192.382812	-75.979553
193.359375	-77.872238
194.335938	-75.875427
195.312500	-76.136002
196.289062	-78.597176
197.265625	-78.447609
198.242188	-77.482651
199.218750	-77.615868
200.195312	-77.035126
201.171875	-76.569748
202.148438	-76.179787
203.125000	-77.744591
204.101562	-77.227226
205.078125	-77.796822
206.054688	-77.505264
207.031250	-76.890442
208.007812	-77.309219
208.984375	-77.724297
209.960938	-77.126091
210.937500	-77.479614
211.914062	-76.827019
212.890625	-76.904114
213.867188	-75.720879
214.843750	-77.307045
215.820312	-76.713097
216.796875	-75.906609
217.773438	-77.004898
218.750000	-78.315857
219.726562	-77.230507
220.703125	-76.733490
221.679688	-77.167435
222.656250	-78.066162
223.632812	-77.096016
224.609375	-77.244606
225.585938	-77.366867
226.562500	-78.149185
227.539062	-77.941818
228.515625	-78.493729
229.492188	-77.182259
230.468750	-77.837593
231.445312	-77.563553
232.421875	-77.278458
233.398438	-76.950127
234.375000	-76.693138
235.351562	-78.074387
236.328125	-78.145744
237.304688	-77.668480
238.281250	-79.279831
239.257812	-78.406487
240.234375	-78.145714
241.210938	-77.521149
242.187500	-76.388107
243.164062	-78.387909
244.140625	-76.806526
245.117188	-76.962990
246.093750	-77.535583
247.070312	-77.636002
248.046875	-77.989265
249.023438	-78.063705
250.000000	-76.461655
250.976562	-78.534233
251.953125	-77.496796
252.929688	-76.802002
253.906250	-76.239143
254.882812	-75.852440
255.859375	-76.160301
256.835938	-77.863724
257.812500	-76.481216
258.789062	-77.269714
259.765625	-78.604919
260.742188	-78.107277
261.718750	-77.311974
262.695312	-76.821243
263.671875	-77.717072
264.648438	-77.693672
265.625000	-76.207588
266.601562	-77.307152
267.578125	-76.293144
268.554688	-75.848122
269.531250	-77.315369
270.507812	-76.384094
271.484375	-78.104027
272.460938	-76.761978
273.437500	-77.901520
274.414062	-77.530205
275.390625	-76.297394
276.367188	-75.985359
277.343750	-75.853355
278.320312	-77.591347
279.296875	-78.331642
280.273438	-77.625832
281.250000	-77.312637
282.226562	-76.699707
283.203125	-76.350052
284.179688	-77.658234
285.156250	-76.166985
286.132812	-75.988640
287.109375	-77.266335
288.085938	-75.294426
289.062500	-76.570099
290.039062	-76.627319
291.015625	-76.419342
291.992188	-76.430756
292.968750	-76.378395
293.945312	-75.779526
294.921875	-76.732719
295.898438	-77.647827
296.875000	-76.852798
297.851562	-77.791763
298.828125	-76.831924
299.804688	-76.492180
300.781250	-77.802513
301.757812	-76.994057
302.734375	-75.955559
303.710938	-77.291473
304.687500	-77.459053
305.664062	-76.455742
306.640625	-75.404129
307.617188	-76.536591
308.593750	-76.592262
309.570312	-75.382042
310.546875	-76.924500
311.523438	-76.884483
312.500000	-75.316490
313.476562	-76.370399
314.453125	-75.342316
315.429688	-75.842484
316.406250	-75.965370
317.382812	-75.834816
318.359375	-75.775520
319.335938	-77.273125
320.312500	-76.811302
321.289062	-76.976364
322.265625	-76.924248
323.242188	-76.555275
324.218750	-76.308891
325.195312	-76.854546
326.171875	-77.322845
327.148438	-75.732941
328.125000	-76.880867
329.101562	-74.730988
330.078125	-75.584915
331.054688	-75.118362
332.031250	-75.527832
333.007812	-75.865356
333.984375	-75.605965
334.960938	-75.395515
335.937500	-75.974724
336.914062	-75.641548
337.890625	-75.286263
338.867188	-75.899994
339.843750	-76.496986
340.820312	-75.752907
341.796875	-76.301941
342.773438	-75.736420
343.750000	-74.272842
344.726562	-75.611328
345.703125	-75.801559
346.679688	-75.538834
347.656250	-75.510620
348.632812	-75.440125
349.609375	-76.174141
350.585938	-76.734215
351.562500	-74.310356
352.539062	-74.712654
353.515625	-74.335228
354.492188	-74.165047
355.468750	-74.190063
356.445312	-74.882889
357.421875	-75.668190
358.398438	-77.069702
359.375000	-74.842155
360.351562	-74.522675
361.328125	-75.921364
362.304688	-75.331779
363.281250	-74.444778
364.257812	-74.435394
365.234375	-75.620079
366.210938	-76.765144
367.187500	-75.269218
368.164062	-75.969994
369.140625	-74.306252
370.117188	-74.783585
371.093750	-74.961754
372.070312	-75.024025
373.046875	-73.928406
374.023438	-74.212242
375.000000	-74.369987
375.976562	-74.698837
376.953125	-75.062408
377.929688	-74.689240
378.906250	-73.979057
379.882812	-74.083168
380.859375	-74.529266
381.835938	-74.493149
382.812500	-73.792549
383.789062	-74.803635
384.765625	-74.333473
385.742188	-74.829697
386.718750	-74.151649
387.695312	-74.919090
388.671875	-74.245644
389.648438	-73.001175
390.625000	-73.158089
391.601562	-75.468269
392.578125	-75.174446
393.554688	-73.367996
394.531250	-74.729141
395.507812	-73.643898
396.484375	-73.421822
397.460938	-74.338020
398.437500	-74.015350
399.414062	-72.869110
400.390625	-73.930664
401.367188	-73.896042
402.343750	-73.306305
403.320312	-72.362793
404.296875	-72.318459
405.273438	-74.602478
406.250000	-74.120552
407.226562	-73.373146
408.203125	-73.284996
409.179688	-73.557411
410.156250	-74.024841
411.132812	-73.530640
412.109375	-73.446220
413.085938	-72.291237
414.062500	-73.653038
415.039062	-73.330399
416.015625	-72.412086
416.992188	-72.533371
417.968750	-73.855400
418.945312	-72.886101
419.921875	-73.889259
420.898438	-72.116257
421.875000	-72.567238
422.851562	-72.464027
423.828125	-72.976692
424.804688	-71.170876
425.781250	-71.244545
426.757812	-72.418663
427.734375	-73.047211
428.710938	-72.984917
429.687500	-72.663094
430.664062	-71.965988
431.640625	-70.052193
432.617188	-72.027962
433.593750	-72.187256
434.570312	-72.864716
435.546875	-71.825523
436.523438	-72.067215
437.500000	-69.483025
438.476562	-71.159225
439.453125	-71.059807
440.429688	-72.315811
441.406250	-71.184486
442.382812	-70.907219
443.359375	-71.083397
444.335938	-71.352791
445.312500	-71.348259
446.289062	-71.285690
447.265625	-69.905922
448.242188	-71.026123
449.218750	-69.737137
450.195312	-71.477005
451.171875	-70.524017
452.148438	-71.012810
453.125000	-71.426514
454.101562	-70.509109
455.078125	-69.715157
456.054688	-69.939690
457.031250	-70.760910
458.007812	-70.214401
458.984375	-69.913635
459.960938	-69.652596
460.937500	-68.687035
461.914062	-69.518738
462.890625	-69.386681
463.867188	-69.671730
464.843750	-69.577637
465.820312	-69.476273
466.796875	-68.165573
467.773438	-69.105598
468.750000	-68.607727
469.726562	-67.809013
470.703125	-67.844124
471.679688	-69.245499
472.656250	-68.289398
473.632812	-68.880493
474.609375	-69.080139
475.585938	-69.411880
476.562500	-68.109558
477.539062	-68.133942
478.515625	-67.907433
479.492188	-68.941231
480.468750	-67.693993
481.445312	-67.158760
482.421875	-68.390884
483.398438	-66.905884
484.375000	-67.450058
485.351562	-67.266754
486.328125	-67.432648
487.304688	-67.308762
488.281250	-68.176300
489.257812	-65.402245
490.234375	-65.630508
491.210938	-66.508392
492.187500	-68.071213
493.164062	-64.911026
494.140625	-66.258286
495.117188	-66.323776
496.093750	-65.250763
497.070312	-66.889366
498.046875	-66.145729
499.023438	-65.896545
500.000000	-66.542503
500.976562	-64.637192
501.953125	-64.168198
502.929688	-65.766518
503.906250	-65.722427
504.882812	-65.164360
505.859375	-64.605820
506.835938	-64.196945
507.812500	-63.345440
508.789062	-65.070251
509.765625	-64.732277
510.742188	-63.064060
511.718750	-63.935066
512.695312	-63.261082
513.671875	-63.771900
514.648438	-63.800156
515.625000	-62.677258
516.601562	-63.133335
517.578125	-63.774979
518.554688	-62.014812
519.531250	-62.936020
520.507812	-62.989902
521.484375	-62.513317
522.460938	-61.939796
523.437500	-62.101898
524.414062	-62.782803
525.390625	-62.970970
526.367188	-62.226536
527.343750	-62.421520
528.320312	-62.020275
529.296875	-61.083195
530.273438	-61.984112
531.250000	-60.265041
532.226562	-60.165195
533.203125	-59.944778
534.179688	-61.110233
535.156250	-60.542446
536.132812	-60.020912
537.109375	-60.867420
538.085938	-60.984760
539.062500	-59.893600
540.039062	-60.842987
541.015625	-60.656178
541.992188	-60.051903
542.968750	-59.249092
543.945312	-60.362465
544.921875	-60.382984
545.898438	-60.447102
546.875000	-60.709694
547.851562	-59.528187
548.828125	-60.284389
549.804688	-60.648830
550.781250	-59.808113
551.757812	-60.640022
552.734375	-60.008698
553.710938	-59.948936
554.687500	-59.671753
555.664062	-60.024925
556.640625	-59.860142
557.617188	-60.299618
558.593750	-60.452461
559.570312	-60.237621
560.546875	-61.180412
561.523438	-61.227932
562.500000	-61.672752
563.476562	-60.279594
564.453125	-60.798065
565.429688	-62.065140
566.406250	-62.495560
567.382812	-61.510590
568.359375	-61.735561
569.335938	-61.911659
570.312500	-61.358643
571.289062	-62.988361
572.265625	-62.380188
573.242188	-62.455708
574.218750	-64.063438
575.195312	-63.495434
576.171875	-62.892357
577.148438	-62.396530
578.125000	-63.280708
579.101562	-64.030174
580.078125	-64.007385
581.054688	-63.628620
582.031250	-63.097496
583.007812	-63.297436
583.984375	-64.753242
584.960938	-64.726814
585.937500	-63.949436
586.914062	-63.232658
587.890625	-64.465996
588.867188	-63.885941
589.843750	-63.895439
590.820312	-63.857353
591.796875	-64.820885
592.773438	-64.345436
593.750000	-64.444641
594.726562	-64.874657
595.703125	-65.736298
596.679688	-64.876022
597.656250	-64.654640
598.632812	-65.703369
599.609375	-64.526138
600.585938	-65.660347
601.562500	-65.177040
602.539062	-65.414215
603.515625	-66.135002
604.492188	-66.500504
605.468750	-65.999725
606.445312	-66.037903
607.421875	-65.022194
608.398438	-67.578720
609.375000	-66.295029
610.351562	-65.326347
611.328125	-67.139503
612.304688	-66.309311
613.281250	-67.633095
614.257812	-66.506134
615.234375	-66.385078
616.210938	-66.646271
617.187500	-66.612724
618.164062	-66.704704
619.140625	-67.742165
620.117188	-66.980766
621.093750	-66.953575
622.070312	-66.837242
623.046875	-67.744278
624.023438	-67.616982
625.000000	-66.803238
625.976562	-67.307365
626.953125	-67.563225
627.929688	-67.862259
628.906250	-68.753838
629.882812	-68.344917
630.859375	-68.125298
631.835938	-68.475304
632.812500	-67.593811
633.789062	-67.674339
634.765625	-69.333893
635.742188	-67.904839
636.718750	-67.958565
637.695312	-68.751564
638.671875	-67.863350
639.648438	-68.411072
640.625000	-69.013077
641.601562	-69.316185
642.578125	-68.359528
643.554688	-68.283348
644.531250	-68.363136
645.507812	-67.923058
646.484375	-69.839035
647.460938	-69.893951
648.437500	-68.435249
649.414062	-69.137375
650.390625	-69.639793
651.367188	-68.573318
652.343750	-68.145302
653.320312	-69.374863
654.296875	-69.132248
655.273438	-69.407249
656.250000	-70.162186
657.226562	-70.620789
658.203125	-69.742973
659.179688	-70.673012
660.156250	-70.544807
661.132812	-70.614716
662.109375	-70.405464
663.085938	-69.209740
664.062500	-69.648888
665.039062	-69.511284
666.015625	-70.124451
666.992188	-71.385475
667.968750	-71.377731
668.945312	-70.825325
669.921875	-71.055519
670.898438	-70.784874
671.875000	-70.200676
672.851562	-69.970558
673.828125	-71.349777
674.804688	-71.414459
675.781250	-72.392632
676.757812	-70.378868
677.734375	-71.254044
678.710938	-71.552956
679.687500	-72.023834
680.664062	-70.090004
681.640625	-70.134514
682.617188	-70.361946
683.593750	-70.293175
684.570312	-71.143547
685.546875	-70.575180
686.523438	-71.255722
687.500000	-72.016632
688.476562	-71.394218
689.453125	-70.591278
690.429688	-72.394051
691.406250	-72.213257
692.382812	-71.363335
693.359375	-71.407486
694.335938	-72.139198
695.312500	-72.483078
696.289062	-73.488129
697.265625	-71.471672
698.242188	-71.640541
699.218750	-72.893692
700.195312	-72.062675
701.171875	-71.227501
702.148438	-71.809265
703.125000	-71.228676
704.101562	-70.594994
705.078125	-72.102104
706.054688	-71.569901
707.031250	-72.079803
708.007812	-72.468658
708.984375	-72.251190
709.960938	-72.589539
710.937500	-71.279572
711.914062	-71.391632
712.890625	-72.353249
713.867188	-71.259361
714.843750	-72.793022
715.820312	-71.321518
716.796875	-72.225555
717.773438	-72.168976
718.750000	-72.009789
719.726562	-73.039375
720.703125	-72.550850
721.679688	-71.931641
722.656250	-72.629242
723.632812	-72.589172
724.609375	-72.244408
725.585938	-71.474426
726.562500	-71.840538
727.539062	-72.958031
728.515625	-72.150894
729.492188	-73.591164
730.468750	-72.238182
731.445312	-72.080681
732.421875	-72.941360
733.398438	-73.367561
734.375000	-71.665077
735.351562	-73.221443
736.328125	-73.028343
737.304688	-72.949722
738.281250	-72.347336
739.257812	-72.157410
740.234375	-72.283745
741.210938	-73.586548
742.187500	-71.405724
743.164062	-71.390297
744.140625	-73.651253
745.117188	-72.126297
746.093750	-72.201599
747.070312	-72.405724
748.046875	-72.407333
749.023438	-73.490845
750.000000	-73.783791
750.976562	-72.735474
751.953125	-72.198105
752.929688	-73.608116
753.906250	-73.449295
754.882812	-72.524559
755.859375	-72.802628
756.835938	-73.773239
757.812500	-73.160660
758.789062	-72.946945
759.765625	-72.538811
760.742188	-73.030113
761.718750	-73.355568
762.695312	-73.265976
763.671875	-73.274643
764.648438	-72.395157
765.625000	-73.194298
766.601562	-73.150124
767.578125	-73.386169
768.554688	-72.198303
769.531250	-73.012566
770.507812	-72.615547
771.484375	-73.240257
772.460938	-74.687775
773.437500	-73.560844
774.414062	-73.344284
775.390625	-72.103798
776.367188	-74.015282
777.343750	-73.125069
778.320312	-72.865738
779.296875	-73.463699
780.273438	-74.755585
781.250000	-74.477020
782.226562	-74.358521
783.203125	-73.231949
784.179688	-73.326408
785.156250	-73.063644
786.132812	-73.259750
787.109375	-73.263641
788.085938	-72.041977
789.062500	-73.394531
790.039062	-73.362740
791.015625	-74.177513
791.992188	-72.741669
792.968750	-72.979042
793.945312	-72.448143
794.921875	-73.412430
795.898438	-72.946594
796.875000	-72.964317
797.851562	-72.776619
798.828125	-71.988777
799.804688	-71.749184
800.781250	-72.955933
801.757812	-73.235733
802.734375	-73.281624
803.710938	-73.012024
804.687500	-73.602707
805.664062	-73.003479
806.640625	-73.546478
807.617188	-73.064682
808.593750	-72.734489
809.570312	-72.601624
810.546875	-73.193916
811.523438	-74.507423
812.500000	-73.206474
813.476562	-71.990326
814.453125	-73.107544
815.429688	-73.331078
816.406250	-72.602631
817.382812	-73.346634
818.359375	-72.562828
819.335938	-73.171860
820.312500	-72.564377
821.289062	-73.198959
822.265625	-73.723961
823.242188	-72.781471
824.218750	-73.199142
825.195312	-72.946648
826.171875	-73.735298
827.148438	-71.900833
828.125000	-73.687866
829.101562	-73.474937
830.078125	-73.305244
831.054688	-72.897041
832.031250	-72.462387
833.007812	-73.184486
833.984375	-72.984116
834.960938	-73.596863
835.937500	-73.693146
836.914062	-73.145302
837.890625	-73.910713
838.867188	-73.101875
839.843750	-74.105652
840.820312	-73.940308
841.796875	-72.596199
842.773438	-73.027863
843.750000	-73.721893
844.726562	-72.420792
845.703125	-73.700127
846.679688	-73.589256
847.656250	-72.045990
848.632812	-71.994637
849.609375	-72.421677
850.585938	-72.698929
851.562500	-73.061913
852.539062	-72.653824
853.515625	-72.963036
854.492188	-72.850662
855.468750	-72.836426
856.445312	-72.646156
857.421875	-72.237488
858.398438	-73.109497
859.375000	-72.661896
860.351562	-72.016830
861.328125	-72.670647
862.304688	-72.614845
863.281250	-73.280762
864.257812	-72.080925
865.234375	-72.999748
866.210938	-72.121414
867.187500	-72.704605
868.164062	-71.901398
869.140625	-71.987350
870.117188	-71.509865
871.093750	-72.314835
872.070312	-71.598724
873.046875	-71.826302
874.023438	-71.889610
875.000000	-72.714798
875.976562	-72.017822
876.953125	-72.329788
877.929688	-72.647339
878.906250	-72.215523
879.882812	-72.452675
880.859375	-71.656395
881.835938	-71.303513
882.812500	-72.520348
883.789062	-72.102638
884.765625	-72.277565
885.742188	-72.060173
886.718750	-71.682915
887.695312	-72.301109
888.671875	-71.555794
889.648438	-70.178383
890.625000	-72.800156
891.601562	-72.564423
892.578125	-72.813416
893.554688	-72.643005
894.531250	-71.856865
895.507812	-72.216972
896.484375	-72.323601
897.460938	-72.222237
898.437500	-72.916946
899.414062	-72.416557
900.390625	-71.528923
901.367188	-70.777260
902.343750	-70.876060
903.320312	-71.839172
904.296875	-71.916985
905.273438	-70.590042
906.250000	-70.604095
907.226562	-70.963898
908.203125	-72.441589
909.179688	-72.118927
910.156250	-72.027863
911.132812	-71.035797
912.109375	-69.576462
913.085938	-72.006561
914.062500	-71.474831
915.039062	-71.399460
916.015625	-72.858368
916.992188	-70.365227
917.968750	-70.570824
918.945312	-71.141304
919.921875	-71.180305
920.898438	-70.232269
921.875000	-70.785469
922.851562	-72.324394
923.828125	-69.892876
924.804688	-70.855530
925.781250	-71.020500
926.757812	-70.066795
927.734375	-71.153717
928.710938	-71.417694
929.687500	-70.867790
930.664062	-70.321701
931.640625	-70.234306
932.617188	-70.146095
933.593750	-70.767860
934.570312	-70.774338
935.546875	-69.660652
936.523438	-70.211006
937.500000	-70.309441
938.476562	-70.369087
939.453125	-69.841530
940.429688	-69.978096
941.406250	-69.644753
942.382812	-69.550079
943.359375	-70.776192
944.335938	-71.173683
945.312500	-69.247040
946.289062	-70.023613
947.265625	-69.830818
948.242188	-70.026672
949.218750	-69.786491
950.195312	-69.018066
951.171875	-70.057899
952.148438	-69.747253
953.125000	-68.547836
954.101562	-70.099747
955.078125	-69.198906
956.054688	-69.120880
957.031250	-68.335587
958.007812	-70.030022
958.984375	-69.618034
959.960938	-70.862167
960.937500	-70.023285
961.914062	-69.475021
962.890625	-69.148140
963.867188	-68.588516
964.843750	-68.665977
965.820312	-69.597000
966.796875	-69.554230
967.773438	-70.173820
968.750000	-69.654556
969.726562	-69.028526
970.703125	-68.116348
971.679688	-68.623566
972.656250	-68.360641
973.632812	-68.115753
974.609375	-67.570198
975.585938	-68.063988
976.562500	-68.427742
977.539062	-67.653671
978.515625	-68.318863
979.492188	-67.665230
980.468750	-67.477203
981.445312	-68.038864
982.421875	-67.879105
983.398438	-67.195175
984.375000	-68.729439
985.351562	-68.043701
986.328125	-67.549080
987.304688	-66.350891
988.281250	-67.507980
989.257812	-69.537941
990.234375	-68.124001
991.210938	-67.729355
992.187500	-66.666809
993.164062	-67.425369
994.140625	-67.364014
995.117188	-66.850403
996.093750	-67.270592
997.070312	-67.725090
998.046875	-67.361870
999.023438	-66.880753
1000.000000	-66.819054
1000.976562	-64.802139
1001.953125	-66.312065
1002.929688	-64.832275
1003.906250	-66.356201
1004.882812	-66.094879
1005.859375	-64.581039
1006.835938	-65.782303
1007.812500	-65.272522
1008.789062	-66.395874
1009.765625	-65.404816
1010.742188	-66.099373
1011.718750	-65.714310
1012.695312	-66.993393
1013.671875	-66.055885
1014.648438	-64.714912
1015.625000	-64.825600
1016.601562	-64.570381
1017.578125	-64.545158
1018.554688	-64.799538
1019.531250	-63.850136
1020.507812	-64.405304
1021.484375	-64.309059
1022.460938	-64.888680
1023.437500	-64.774773
1024.414062	-65.218781
1025.390625	-63.387691
1026.367188	-64.493088
1027.343750	-62.828751
1028.320312	-65.117104
1029.296875	-63.578423
1030.273438	-63.732704
1031.250000	-64.350220
1032.226562	-63.977402
1033.203125	-63.535507
1034.179688	-63.415623
1035.156250	-63.190254
1036.132812	-62.058125
1037.109375	-62.966263
1038.085938	-64.067047
1039.062500	-62.201805
1040.039062	-64.086464
1041.015625	-62.160633
1041.992188	-61.754478
1042.968750	-62.837414
1043.945312	-61.617714
1044.921875	-60.974968
1045.898438	-59.909878
1046.875000	-60.118885
1047.851562	-60.081932
1048.828125	-62.102974
1049.804688	-60.977180
1050.781250	-59.847454
1051.757812	-60.219185
1052.734375	-62.454056
1053.710938	-61.034653
1054.687500	-59.410690
1055.664062	-58.854347
1056.640625	-60.373280
1057.617188	-60.525391
1058.593750	-60.032505
1059.570312	-59.120056
1060.546875	-58.461376
1061.523438	-58.734222
1062.500000	-59.742245
1063.476562	-59.451214
1064.453125	-59.838112
1065.429688	-59.441196
1066.406250	-59.247334
1067.382812	-58.606560
1068.359375	-57.992607
1069.335938	-55.819408
1070.312500	-57.813332
1071.289062	-58.881649
1072.265625	-56.770428
1073.242188	-56.564392
1074.218750	-55.854412
1075.195312	-56.452255
1076.171875	-57.642662
1077.148438	-57.212238
1078.125000	-57.578552
1079.101562	-57.100071
1080.078125	-56.859989
1081.054688	-56.832733
1082.031250	-56.731457
1083.007812	-56.860653
1083.984375	-56.612911
1084.960938	-56.469063
1085.937500	-56.669708
1086.914062	-55.980694
1087.890625	-54.525978
1088.867188	-57.415070
1089.843750	-58.195866
1090.820312	-56.614620
1091.796875	-57.307339
1092.773438	-55.335262
1093.750000	-56.151192
1094.726562	-57.856224
1095.703125	-55.641502
1096.679688	-55.246410
1097.656250	-57.028950
1098.632812	-56.465919
1099.609375	-54.759205
1100.585938	-56.640999
1101.562500	-56.000229
1102.539062	-55.962479
1103.515625	-56.411385
1104.492188	-56.302830
1105.468750	-57.015553
1106.445312	-56.342773
1107.421875	-56.824589
1108.398438	-56.691906
1109.375000	-58.310993
1110.351562	-57.560871
1111.328125	-57.880928
1112.304688	-57.302143
1113.281250	-57.673740
1114.257812	-57.709682
1115.234375	-56.924713
1116.210938	-58.884773
1117.187500	-57.592762
1118.164062	-58.577374
1119.140625	-57.858986
1120.117188	-57.251637
1121.093750	-57.828396
1122.070312	-57.916801
1123.046875	-57.325180
1124.023438	-57.938934
1125.000000	-58.733658
1125.976562	-57.857819
1126.953125	-60.090626
1127.929688	-59.254356
1128.906250	-58.709450
1129.882812	-59.760914
1130.859375	-58.503616
1131.835938	-59.735847
1132.812500	-58.572693
1133.789062	-59.615662
1134.765625	-60.482159
1135.742188	-61.311356
1136.718750	-59.467239
1137.695312	-60.556725
1138.671875	-60.197441
1139.648438	-60.529697
1140.625000	-60.322361
1141.601562	-60.287632
1142.578125	-61.627140
1143.554688	-60.403671
1144.531250	-62.896885
1145.507812	-61.472069
1146.484375	-62.275410
1147.460938	-62.591236
1148.437500	-60.828636
1149.414062	-62.401352
1150.390625	-61.932518
1151.367188	-62.001598
1152.343750	-61.721619
1153.320312	-60.881626
1154.296875	-63.514984
1155.273438	-62.664616
1156.250000	-63.139210
1157.226562	-63.502304
1158.203125	-63.417728
1159.179688	-63.012539
1160.156250	-62.858212
1161.132812	-64.878250
1162.109375	-64.394516
1163.085938	-63.991665
1164.062500	-64.028419
1165.039062	-64.496574
1166.015625	-63.435558
1166.992188	-64.023102
1167.968750	-64.648323
1168.945312	-63.671932
1169.921875	-64.016388
1170.898438	-64.506836
1171.875000	-64.128136
1172.851562	-65.124107
1173.828125	-65.044609
1174.804688	-64.674858
1175.781250	-64.747002
1176.757812	-64.957390
1177.734375	-65.706825
1178.710938	-66.680679
1179.687500	-65.382629
1180.664062	-66.040100
1181.640625	-65.128448
1182.617188	-65.481499
1183.593750	-65.338455
1184.570312	-66.195511
1185.546875	-65.705193
1186.523438	-64.782455
1187.500000	-66.264626
1188.476562	-66.187698
1189.453125	-65.192474
1190.429688	-65.849098
1191.406250	-65.668716
1192.382812	-66.124710
1193.359375	-65.679489
1194.335938	-65.242531
1195.312500	-66.345764
1196.289062	-66.962975
1197.265625	-67.273003
1198.242188	-67.311531
1199.218750	-67.719521
1200.195312	-67.218536
1201.171875	-66.160133
1202.148438	-66.232834
1203.125000	-66.435097
1204.101562	-67.567848
1205.078125	-66.399338
1206.054688	-67.489349
1207.031250	-67.302628
1208.007812	-66.195068
1208.984375	-66.796234
1209.960938	-67.163727
1210.937500	-68.168106
1211.914062	-68.877457
1212.890625	-67.091171
1213.867188	-67.624916
1214.843750	-68.844017
1215.820312	-67.725548
1216.796875	-67.942970
1217.773438	-66.479477
1218.750000	-67.219810
1219.726562	-68.487396
1220.703125	-68.438377
1221.679688	-67.560440
1222.656250	-68.224991
1223.632812	-67.886223
1224.609375	-68.458557
1225.585938	-67.554733
1226.562500	-69.350624
1227.539062	-69.177010
1228.515625	-68.076599
1229.492188	-68.571396
1230.468750	-67.713760
1231.445312	-68.019608
1232.421875	-68.420204
1233.398438	-68.727730
1234.375000	-69.432869
1235.351562	-68.472275
1236.328125	-68.984474
1237.304688	-68.162971
1238.281250	-69.825249
1239.257812	-67.389381
1240.234375	-67.374870
1241.210938	-67.934235
1242.187500	-67.837029
1243.164062	-69.473572
1244.140625	-69.131607
1245.117188	-67.843231
1246.093750	-68.506622
1247.070312	-67.814827
1248.046875	-68.266045
1249.023438	-68.261436
1250.000000	-69.155594
1250.976562	-69.087051
1251.953125	-68.517883
1252.929688	-68.639465
1253.906250	-68.352753
1254.882812	-69.079918
1255.859375	-68.742935
1256.835938	-69.966537
1257.812500	-69.191017
1258.789062	-69.336914
1259.765625	-69.190704
1260.742188	-69.726257
1261.718750	-69.479568
1262.695312	-68.771797
1263.671875	-69.149345
1264.648438	-69.383530
1265.625000	-68.662285
1266.601562	-70.517525
1267.578125	-69.922470
1268.554688	-68.971970
1269.531250	-69.088631
1270.507812	-69.395897
1271.484375	-70.153702
1272.460938	-69.217613
1273.437500	-69.821632
1274.414062	-69.189308
1275.390625	-69.353043
1276.367188	-70.362007
1277.343750	-68.952286
1278.320312	-70.054588
1279.296875	-70.006996
1280.273438	-69.779305
1281.250000	-69.674080
1282.226562	-70.321571
1283.203125	-70.956657
1284.179688	-68.837990
1285.156250	-69.370361
1286.132812	-70.061348
1287.109375	-71.016205
1288.085938	-70.676247
1289.062500	-69.721596
1290.039062	-69.405037
1291.015625	-69.857956
1291.992188	-70.110825
1292.968750	-69.687843
1293.945312	-71.005615
1294.921875	-69.504250
1295.898438	-70.165169
1296.875000	-68.908981
1297.851562	-69.858833
1298.828125	-69.158882
1299.804688	-69.501060
1300.781250	-70.172707
1301.757812	-71.509178
1302.734375	-70.186630
1303.710938	-69.792305
1304.687500	-71.579445
1305.664062	-70.383247
1306.640625	-69.466705
1307.617188	-70.589333
1308.593750	-70.477188
1309.570312	-70.831985
1310.546875	-70.537193
1311.523438	-70.119545
1312.500000	-70.464600
1313.476562	-70.293327
1314.453125	-68.963623
1315.429688	-69.830315
1316.406250	-69.899323
1317.382812	-70.027184
1318.359375	-70.124947
1319.335938	-69.529289
1320.312500	-71.930779
1321.289062	-70.069191
1322.265625	-70.952644
1323.242188	-71.038368
1324.218750	-70.537582
1325.195312	-71.288223
1326.171875	-71.431068
1327.148438	-70.890617
1328.125000	-70.836662
1329.101562	-69.822739
1330.078125	-69.617630
1331.054688	-70.364029
1332.031250	-70.325142
1333.007812	-70.818985
1333.984375	-71.322395
1334.960938	-71.233154
1335.937500	-69.921875
1336.914062	-70.220146
1337.890625	-70.194008
1338.867188	-71.011513
1339.843750	-70.937859
1340.820312	-70.804626
1341.796875	-70.074211
1342.773438	-71.145660
1343.750000	-70.678688
1344.726562	-70.930855
1345.703125	-71.954002
1346.679688	-69.931175
1347.656250	-69.220421
1348.632812	-70.059929
1349.609375	-69.534584
1350.585938	-71.129158
1351.562500	-71.319748
1352.539062	-70.993568
1353.515625	-69.818764
1354.492188	-70.216057
1355.468750	-70.336205
1356.445312	-70.634499
1357.421875	-70.549690
1358.398438	-69.473679
1359.375000	-69.513100
1360.351562	-69.636597
1361.328125	-70.546051
1362.304688	-70.203232
1363.281250	-71.289238
1364.257812	-69.280289
1365.234375	-70.376503
1366.210938	-69.465424
1367.187500	-70.830589
1368.164062	-69.423767
1369.140625	-70.499420
1370.117188	-71.176796
1371.093750	-70.301804
1372.070312	-69.844711
1373.046875	-71.435951
1374.023438	-69.864388
1375.000000	-70.428223
1375.976562	-70.410812
1376.953125	-69.649651
1377.929688	-70.806084
1378.906250	-70.308311
1379.882812	-70.078850
1380.859375	-69.883118
1381.835938	-70.092606
1382.812500	-70.897476
1383.789062	-70.584122
1384.765625	-69.303970
1385.742188	-70.888290
1386.718750	-70.319496
1387.695312	-69.571014
1388.671875	-69.594604
1389.648438	-70.218575
1390.625000	-69.436600
1391.601562	-69.952469
1392.578125	-68.930840
1393.554688	-69.858978
1394.531250	-70.295113
1395.507812	-69.674255
1396.484375	-69.890236
1397.460938	-69.537346
1398.437500	-69.661064
1399.414062	-70.137985
1400.390625	-70.166817
1401.367188	-70.499214
1402.343750	-69.853294
1403.320312	-68.926392
1404.296875	-69.891762
1405.273438	-70.214737
1406.250000	-70.189705
1407.226562	-69.630920
1408.203125	-68.183334
1409.179688	-69.825249
1410.156250	-70.484406
1411.132812	-69.428093
1412.109375	-70.194603
1413.085938	-69.446388
1414.062500	-68.787994
1415.039062	-69.637634
1416.015625	-68.498970
1416.992188	-69.621559
1417.968750	-69.513313
1418.945312	-68.897568
1419.921875	-70.373528
1420.898438	-69.246651
1421.875000	-70.677139
1422.851562	-70.795448
1423.828125	-69.471672
1424.804688	-68.494263
1425.781250	-69.125366
1426.757812	-67.591423
1427.734375	-69.563660
1428.710938	-69.655678
1429.687500	-69.260506
1430.664062	-68.504768
1431.640625	-69.350075
1432.617188	-69.483147
1433.593750	-68.898018
1434.570312	-69.217461
1435.546875	-69.560921
1436.523438	-70.339554
1437.500000	-69.712601
1438.476562	-68.937080
1439.453125	-68.381630
1440.429688	-68.768211
1441.406250	-68.267487
1442.382812	-68.704857
1443.359375	-69.098083
1444.335938	-68.194443
1445.312500	-70.156670
1446.289062	-69.144966
1447.265625	-69.371902
1448.242188	-68.029205
1449.218750	-68.798531
1450.195312	-69.182205
1451.171875	-68.687012
1452.148438	-68.511078
1453.125000	-70.162003
1454.101562	-68.229752
1455.078125	-69.154137
1456.054688	-68.117599
1457.031250	-68.560081
1458.007812	-68.575569
1458.984375	-68.296890
1459.960938	-69.110901
1460.937500	-68.275002
1461.914062	-68.584435
1462.890625	-68.378838
1463.867188	-68.317131
1464.843750	-68.043991
1465.820312	-67.104942
1466.796875	-66.436821
1467.773438	-67.612595
1468.750000	-66.761116
1469.726562	-67.677910
1470.703125	-67.550591
1471.679688	-68.507927
1472.656250	-67.385590
1473.632812	-67.890999
1474.609375	-67.145157
1475.585938	-67.654236
1476.562500	-66.610229
1477.539062	-67.038307
1478.515625	-66.575096
1479.492188	-67.900856
1480.468750	-67.561623
1481.445312	-68.839134
1482.421875	-67.307312
1483.398438	-67.155151
1484.375000	-66.999359
1485.351562	-67.272034
1486.328125	-66.715294
1487.304688	-66.982086
1488.281250	-66.659279
1489.257812	-67.515549
1490.234375	-67.325073
1491.210938	-67.106659
1492.187500	-66.608406
1493.164062	-66.408340
1494.140625	-67.289154
1495.117188	-66.927643
1496.093750	-66.492142
1497.070312	-67.157166
1498.046875	-66.390366
1499.023438	-67.493271
1500.000000	-67.100082
1500.976562	-65.715782
1501.953125	-66.563072
1502.929688	-65.236618
1503.906250	-66.584190
1504.882812	-66.559082
1505.859375	-66.255943
1506.835938	-65.958847
1507.812500	-66.108894
1508.789062	-65.961685
1509.765625	-66.774063
1510.742188	-66.444832
1511.718750	-65.642403
1512.695312	-65.306946
1513.671875	-64.389732
1514.648438	-64.720055
1515.625000	-65.779411
1516.601562	-65.692253
1517.578125	-64.941498
1518.554688	-65.831329
1519.531250	-64.741356
1520.507812	-65.048996
1521.484375	-65.075851
1522.460938	-64.668243
1523.437500	-64.574394
1524.414062	-65.546303
1525.390625	-64.974770
1526.367188	-65.195801
1527.343750	-65.467506
1528.320312	-64.489601
1529.296875	-63.193619
1530.273438	-64.284096
1531.250000	-64.121346
1532.226562	-65.185120
1533.203125	-64.047279
1534.179688	-64.692192
1535.156250	-63.671242
1536.132812	-65.165947
1537.109375	-63.379971
1538.085938	-63.689495
1539.062500	-64.428780
1540.039062	-65.336136
1541.015625	-65.029678
1541.992188	-63.561745
1542.968750	-63.169243
1543.945312	-63.830437
1544.921875	-63.447159
1545.898438	-63.383656
1546.875000	-62.675564
1547.851562	-63.269073
1548.828125	-62.915356
1549.804688	-63.922108
1550.781250	-64.053642
1551.757812	-62.418285
1552.734375	-62.258350
1553.710938	-62.558548
1554.687500	-63.124714
1555.664062	-61.513775
1556.640625	-62.749012
1557.617188	-62.256554
1558.593750	-60.532284
1559.570312	-63.200703
1560.546875	-63.053791
1561.523438	-61.416084
1562.500000	-61.160130
1563.476562	-61.779865
1564.453125	-60.982597
1565.429688	-61.967812
1566.406250	-60.447308
1567.382812	-61.122669
1568.359375	-62.967033
1569.335938	-61.370453
1570.312500	-60.572056
1571.289062	-61.712177
1572.265625	-60.405006
1573.242188	-61.951721
1574.218750	-60.269356
1575.195312	-61.773380
1576.171875	-59.497303
1577.148438	-59.371490
1578.125000	-60.799850
1579.101562	-59.797482
1580.078125	-59.806568
1581.054688	-58.819111
1582.031250	-59.096371
1583.007812	-60.656857
1583.984375	-59.472149
1584.960938	-59.842888
1585.937500	-59.008347
1586.914062	-57.543854
1587.890625	-56.977516
1588.867188	-57.395107
1589.843750	-58.269615
1590.820312	-58.459263
1591.796875	-58.573345
1592.773438	-57.702118
1593.750000	-56.876991
1594.726562	-58.059311
1595.703125	-56.533768
1596.679688	-57.871635
1597.656250	-57.114182
1598.632812	-56.612431
1599.609375	-56.705280
1600.585938	-57.622742
1601.562500	-56.273422
1602.539062	-56.094902
1603.515625	-56.513172
1604.492188	-55.177155
1605.468750	-54.563492
1606.445312	-55.592113
1607.421875	-55.642399
1608.398438	-56.137890
1609.375000	-55.024681
1610.351562	-54.917805
1611.328125	-55.148804
1612.304688	-55.015587
1613.281250	-54.574505
1614.257812	-54.309319
1615.234375	-53.585167
1616.210938	-55.272346
1617.187500	-54.042229
1618.164062	-53.060886
1619.140625	-52.153011
1620.117188	-52.779186
1621.093750	-52.907944
1622.070312	-53.640656
1623.046875	-53.028522
1624.023438	-52.170921
1625.000000	-52.755890
1625.976562	-51.083225
1626.953125	-51.913658
1627.929688	-52.043781
1628.906250	-51.988400
1629.882812	-51.122559
1630.859375	-52.675159
1631.835938	-51.045898
1632.812500	-51.168251
1633.789062	-51.708214
1634.765625	-51.478718
1635.742188	-53.082012
1636.718750	-50.886341
1637.695312	-51.243523
1638.671875	-50.938606
1639.648438	-50.482410
1640.625000	-50.614147
1641.601562	-51.139694
1642.578125	-51.292286
1643.554688	-50.816616
1644.531250	-50.145000
1645.507812	-51.192940
1646.484375	-52.668274
1647.460938	-51.632622
1648.437500	-51.658764
1649.414062	-52.961002
1650.390625	-52.412170
1651.367188	-52.447395
1652.343750	-51.933670
1653.320312	-52.024529
1654.296875	-52.251102
1655.273438	-52.889816
1656.250000	-52.205112
1657.226562	-52.465557
1658.203125	-52.990688
1659.179688	-52.986843
1660.156250	-53.271393
1661.132812	-54.060593
1662.109375	-53.386654
1663.085938	-54.354015
1664.062500	-54.486179
1665.039062	-53.701012
1666.015625	-55.209038
1666.992188	-54.467533
1667.968750	-55.078434
1668.945312	-54.302067
1669.921875	-54.729733
1670.898438	-56.207031
1671.875000	-55.595863
1672.851562	-55.919952
1673.828125	-56.304470
1674.804688	-56.339405
1675.781250	-56.790604
1676.757812	-56.089882
1677.734375	-56.218933
1678.710938	-55.640701
1679.687500	-57.297993
1680.664062	-56.898605
1681.640625	-57.297234
1682.617188	-57.276352
1683.593750	-56.772289
1684.570312	-57.866413
1685.546875	-57.260105
1686.523438	-58.375927
1687.500000	-58.529652
1688.476562	-58.184502
1689.453125	-57.842064
1690.429688	-58.092152
1691.406250	-58.010708
1692.382812	-58.299305
1693.359375	-58.410625
1694.335938	-59.212666
1695.312500	-58.921673
1696.289062	-60.265675
1697.265625	-58.618843
1698.242188	-58.844261
1699.218750	-57.684185
1700.195312	-60.575855
1701.171875	-60.168068
1702.148438	-59.743126
1703.125000	-59.484119
1704.101562	-59.813847
1705.078125	-59.455212
1706.054688	-59.009995
1707.031250	-59.806271
1708.007812	-59.644932
1708.984375	-60.667870
1709.960938	-60.652447
1710.937500	-60.309536
1711.914062	-60.041363
1712.890625	-60.772995
1713.867188	-60.891190
1714.843750	-60.591499
1715.820312	-59.699341
1716.796875	-61.798363
1717.773438	-61.201794
1718.750000	-61.495148
1719.726562	-61.255775
1720.703125	-61.677433
1721.679688	-61.576801
1722.656250	-62.060131
1723.632812	-61.177021
1724.609375	-62.811100
1725.585938	-60.741238
1726.562500	-62.460339
1727.539062	-61.636776
1728.515625	-62.641647
1729.492188	-62.204224
1730.468750	-61.771099
1731.445312	-62.244923
1732.421875	-61.840206
1733.398438	-62.763111
1734.375000	-62.691204
1735.351562	-62.355881
1736.328125	-61.695305
1737.304688	-61.910976
1738.281250	-62.915417
1739.257812	-63.827675
1740.234375	-62.095806
1741.210938	-63.018486
1742.187500	-63.003151
1743.164062	-62.092041
1744.140625	-62.968437
1745.117188	-63.500996
1746.093750	-62.962017
1747.070312	-63.097778
1748.046875	-63.369312
1749.023438	-63.689137
1750.000000	-63.209400
1750.976562	-63.027275
1751.953125	-62.817280
1752.929688	-61.535213
1753.906250	-64.428627
1754.882812	-63.303974
1755.859375	-63.432270
1756.835938	-64.211525
1757.812500	-63.168575
1758.789062	-63.937370
1759.765625	-63.237206
1760.742188	-63.958797
1761.718750	-64.385338
1762.695312	-64.108948
1763.671875	-65.060608
1764.648438	-63.484497
1765.625000	-63.758171
1766.601562	-63.866215
1767.578125	-64.306656
1768.554688	-63.414230
1769.531250	-64.280922
1770.507812	-63.737835
1771.484375	-65.288857
1772.460938	-64.388557
1773.437500	-63.676353
1774.414062	-64.825218
1775.390625	-64.532394
1776.367188	-65.637398
1777.343750	-65.112732
1778.320312	-64.456512
1779.296875	-64.075981
1780.273438	-65.277466
1781.250000	-64.619614
1782.226562	-64.490944
1783.203125	-64.279907
1784.179688	-63.661037
1785.156250	-64.095589
1786.132812	-65.216415
1787.109375	-64.617241
1788.085938	-64.710152
1789.062500	-64.036125
1790.039062	-64.510216
1791.015625	-64.114822
1791.992188	-65.518196
1792.968750	-65.304596
1793.945312	-64.633064
1794.921875	-65.077087
1795.898438	-63.858482
1796.875000	-63.896107
1797.851562	-65.747505
1798.828125	-63.917374
1799.804688	-64.008408
1800.781250	-63.051441
1801.757812	-66.085663
1802.734375	-65.288216
1803.710938	-64.724739
1804.687500	-65.912491
1805.664062	-66.565025
1806.640625	-65.508522
1807.617188	-64.249695
1808.593750	-64.204163
1809.570312	-65.854408
1810.546875	-66.474808
1811.523438	-66.371803
1812.500000	-65.242058
1813.476562	-64.757301
1814.453125	-64.632011
1815.429688	-64.697365
1816.406250	-65.332588
1817.382812	-64.958626
1818.359375	-66.397964
1819.335938	-65.457726
1820.312500	-64.717140
1821.289062	-65.788155
1822.265625	-64.790268
1823.242188	-66.759911
1824.218750	-65.742508
1825.195312	-65.070686
1826.171875	-65.085899
1827.148438	-65.394127
1828.125000	-65.343460
1829.101562	-65.114777
1830.078125	-65.276329
1831.054688	-65.748337
1832.031250	-64.713722
1833.007812	-65.302231
1833.984375	-66.016640
1834.960938	-64.402946
1835.937500	-66.002388
1836.914062	-66.092438
1837.890625	-66.793625
1838.867188	-65.894905
1839.843750	-65.113983
1840.820312	-66.311996
1841.796875	-64.151672
1842.773438	-66.247696
1843.750000	-65.094704
1844.726562	-65.922287
1845.703125	-65.773560
1846.679688	-65.709122
1847.656250	-65.285202
1848.632812	-67.334068
1849.609375	-66.582359
1850.585938	-65.694069
1851.562500	-66.671661
1852.539062	-66.976784
1853.515625	-66.956543
1854.492188	-64.731247
1855.468750	-65.374634
1856.445312	-65.977303
1857.421875	-65.241287
1858.398438	-64.254768
1859.375000	-64.940140
1860.351562	-66.096939
1861.328125	-66.298851
1862.304688	-66.567619
1863.281250	-65.507172
1864.257812	-66.336868
1865.234375	-66.310280
1866.210938	-65.311607
1867.187500	-66.770149
1868.164062	-67.417358
1869.140625	-67.744514
1870.117188	-66.323662
1871.093750	-66.731331
1872.070312	-66.398575
1873.046875	-65.494461
1874.023438	-65.731071
1875.000000	-65.545303
1875.976562	-66.049904
1876.953125	-66.335777
1877.929688	-66.121880
1878.906250	-65.785927
1879.882812	-67.039230
1880.859375	-66.025955
1881.835938	-66.089027
1882.812500	-66.783195
1883.789062	-67.907455
1884.765625	-67.103546
1885.742188	-65.900497
1886.718750	-66.146187
1887.695312	-66.215935
1888.671875	-64.550926
1889.648438	-65.045013
1890.625000	-65.568275
1891.601562	-64.760094
1892.578125	-65.463074
1893.554688	-65.890060
1894.531250	-66.278206
1895.507812	-66.176826
1896.484375	-66.443695
1897.460938	-66.282372
1898.437500	-65.941788
1899.414062	-65.784737
1900.390625	-66.569359
1901.367188	-67.534172
1902.343750	-64.988503
1903.320312	-66.695076
1904.296875	-65.938690
1905.273438	-65.198479
1906.250000	-65.226685
1907.226562	-66.956909
1908.203125	-64.773575
1909.179688	-65.115692
1910.156250	-64.803802
1911.132812	-65.226120
1912.109375	-65.736107
1913.085938	-64.976082
1914.062500	-65.930969
1915.039062	-65.869705
1916.015625	-66.029160
1916.992188	-65.122017
1917.968750	-65.720711
1918.945312	-66.796944
1919.921875	-65.501747
1920.898438	-65.402222
1921.875000	-65.247589
1922.851562	-66.900200
1923.828125	-65.306007
1924.804688	-66.358215
1925.781250	-65.793671
1926.757812	-66.132683
1927.734375	-65.311119
1928.710938	-65.244392
1929.687500	-65.664536
1930.664062	-67.159676
1931.640625	-65.633888
1932.617188	-66.743271
1933.593750	-67.105232
1934.570312	-64.972404
1935.546875	-65.874329
1936.523438	-65.670372
1937.500000	-65.720352
1938.476562	-65.525734
1939.453125	-65.356064
1940.429688	-65.805168
1941.406250	-65.497528
1942.382812	-65.222885
1943.359375	-66.505157
1944.335938	-65.052643
1945.312500	-66.205002
1946.289062	-65.428856
1947.265625	-65.428864
1948.242188	-65.172997
1949.218750	-65.014832
1950.195312	-65.706955
1951.171875	-66.222816
1952.148438	-66.946053
1953.125000	-65.732033
1954.101562	-64.679237
1955.078125	-65.833351
1956.054688	-64.910423
1957.031250	-64.367569
1958.007812	-65.951302
1958.984375	-64.546883
1959.960938	-66.318413
1960.937500	-65.268517
1961.914062	-65.687057
1962.890625	-65.883041
1963.867188	-64.933846
1964.843750	-64.507843
1965.820312	-64.562706
1966.796875	-65.364815
1967.773438	-65.371758
1968.750000	-64.015617
1969.726562	-64.916588
1970.703125	-64.363159
1971.679688	-65.090187
1972.656250	-64.982796
1973.632812	-63.950546
1974.609375	-64.693130
1975.585938	-64.223793
1976.562500	-64.926483
1977.539062	-63.453434
1978.515625	-64.656120
1979.492188	-65.603508
1980.468750	-64.748154
1981.445312	-64.208633
1982.421875	-64.772736
1983.398438	-64.911797
1984.375000	-65.548935
1985.351562	-65.301918
1986.328125	-64.900787
1987.304688	-63.940151
1988.281250	-63.887848
1989.257812	-64.411522
1990.234375	-64.447464
1991.210938	-64.960617
1992.187500	-64.664650
1993.164062	-65.910774
1994.140625	-64.863594
1995.117188	-63.271179
1996.093750	-63.069328
1997.070312	-65.583969
1998.046875	-64.107613
1999.023438	-64.665985
2000.000000	-65.417297
2000.976562	-64.599808
2001.953125	-63.819962
2002.929688	-62.809902
2003.906250	-63.328293
2004.882812	-63.238453
2005.859375	-63.670547
2006.835938	-63.728966
2007.812500	-64.642426
2008.789062	-63.862965
2009.765625	-64.018410
2010.742188	-64.130402
2011.718750	-63.498150
2012.695312	-63.129581
2013.671875	-64.041176
2014.648438	-63.792999
2015.625000	-63.937572
2016.601562	-63.945187
2017.578125	-63.849018
2018.554688	-63.155121
2019.531250	-63.658104
2020.507812	-62.518002
2021.484375	-62.682049
2022.460938	-63.372334
2023.437500	-62.870262
2024.414062	-62.408566
2025.390625	-62.138676
2026.367188	-62.783096
2027.343750	-63.782967
2028.320312	-63.178459
2029.296875	-62.770775
2030.273438	-62.993385
2031.250000	-63.648720
2032.226562	-63.081558
2033.203125	-62.691032
2034.179688	-62.203480
2035.156250	-62.781342
2036.132812	-61.380001
2037.109375	-61.815048
2038.085938	-61.301132
2039.062500	-63.672684
2040.039062	-62.088676
2041.015625	-61.405903
2041.992188	-62.525234
2042.968750	-62.249390
2043.945312	-61.898529
2044.921875	-62.070663
2045.898438	-61.719875
2046.875000	-62.102787
2047.851562	-61.622066
2048.828125	-61.684929
2049.804688	-62.659302
2050.781250	-61.136002
2051.757812	-61.314392
2052.734375	-61.053131
2053.710938	-60.914833
2054.687500	-62.164345
2055.664062	-61.990398
2056.640625	-59.166218
2057.617188	-60.281059
2058.593750	-61.014565
2059.570312	-61.116638
2060.546875	-61.021713
2061.523438	-60.612820
2062.500000	-59.509724
2063.476562	-61.316025
2064.453125	-61.473595
2065.429688	-60.962029
2066.406250	-61.534878
2067.382812	-60.570721
2068.359375	-60.377453
2069.335938	-59.987259
2070.312500	-60.968544
2071.289062	-60.443920
2072.265625	-60.222855
2073.242188	-58.770638
2074.218750	-60.026482
2075.195312	-59.505058
2076.171875	-59.263969
2077.148438	-61.682636
2078.125000	-59.490749
2079.101562	-60.556000
2080.078125	-59.868580
2081.054688	-60.396343
2082.031250	-58.751659
2083.007812	-59.613094
2083.984375	-58.418343
2084.960938	-59.098042
2085.937500	-59.816544
2086.914062	-59.139389
2087.890625	-58.578609
2088.867188	-58.165073
2089.843750	-58.585629
2090.820312	-57.645046
2091.796875	-57.567543
2092.773438	-57.693501
2093.750000	-58.566929
2094.726562	-58.928074
2095.703125	-58.548817
2096.679688	-57.978142
2097.656250	-58.429661
2098.632812	-57.023663
2099.609375	-56.935307
2100.585938	-58.413990
2101.562500	-57.583176
2102.539062	-56.506104
2103.515625	-56.959362
2104.492188	-56.490723
2105.468750	-56.207150
2106.445312	-57.566711
2107.421875	-57.403099
2108.398438	-56.812870
2109.375000	-56.298843
2110.351562	-56.472637
2111.328125	-57.022305
2112.304688	-55.957558
2113.281250	-56.402370
2114.257812	-56.451569
2115.234375	-55.766109
2116.210938	-54.913086
2117.187500	-56.959145
2118.164062	-55.767021
2119.140625	-54.183800
2120.117188	-55.893337
2121.093750	-54.088516
2122.070312	-55.316071
2123.046875	-55.013397
2124.023438	-53.512726
2125.000000	-54.465195
2125.976562	-53.579754
2126.953125	-55.648384
2127.929688	-55.112831
2128.906250	-53.107750
2129.882812	-54.799496
2130.859375	-55.088928
2131.835938	-53.956554
2132.812500	-53.643097
2133.789062	-54.595745
2134.765625	-53.906181
2135.742188	-52.131920
2136.718750	-53.155434
2137.695312	-53.046921
2138.671875	-53.103416
2139.648438	-54.439426
2140.625000	-53.434925
2141.601562	-53.279739
2142.578125	-52.540756
2143.554688	-52.410217
2144.531250	-52.729538
2145.507812	-52.458851
2146.484375	-50.801620
2147.460938	-51.215378
2148.437500	-50.974155
2149.414062	-50.997005
2150.390625	-49.669930
2151.367188	-51.244026
2152.343750	-51.309769
2153.320312	-49.820187
2154.296875	-51.994930
2155.273438	-49.875565
2156.250000	-49.681732
2157.226562	-49.708523
2158.203125	-49.536243
2159.179688	-50.814175
2160.156250	-50.633736
2161.132812	-50.616558
2162.109375	-48.219059
2163.085938	-48.927898
2164.062500	-47.843193
2165.039062	-48.228542
2166.015625	-48.953575
2166.992188	-48.104889
2167.968750	-48.183910
2168.945312	-47.542377
2169.921875	-46.857700
2170.898438	-48.085815
2171.875000	-47.233265
2172.851562	-47.178490
2173.828125	-45.774246
2174.804688	-47.583199
2175.781250	-48.617912
2176.757812	-47.712959
2177.734375	-46.537830
2178.710938	-48.556862
2179.687500	-47.676819
2180.664062	-48.848125
2181.640625	-47.425453
2182.617188	-47.131672
2183.593750	-46.462818
2184.570312	-46.586327
2185.546875	-46.977840
2186.523438	-47.685604
2187.500000	-48.249378
2188.476562	-46.467609
2189.453125	-46.194046
2190.429688	-48.531586
2191.406250	-48.131226
2192.382812	-47.709339
2193.359375	-47.112534
2194.335938	-48.579952
2195.312500	-48.661011
2196.289062	-47.738785
2197.265625	-47.685234
2198.242188	-47.742970
2199.218750	-47.100887
2200.195312	-48.542812
2201.171875	-47.845913
2202.148438	-48.719303
2203.125000	-49.023399
2204.101562	-48.463863
2205.078125	-48.682941
2206.054688	-49.112431
2207.031250	-50.243546
2208.007812	-50.078312
2208.984375	-49.168003
2209.960938	-49.184933
2210.937500	-49.933540
2211.914062	-50.295113
2212.890625	-49.766121
2213.867188	-49.788326
2214.843750	-50.468044
2215.820312	-50.204575
2216.796875	-50.119980
2217.773438	-50.339054
2218.750000	-50.417973
2219.726562	-50.450050
2220.703125	-50.856960
2221.679688	-51.768589
2222.656250	-50.691639
2223.632812	-50.312977
2224.609375	-52.126709
2225.585938	-52.526287
2226.562500	-50.881210
2227.539062	-51.887173
2228.515625	-52.038254
2229.492188	-51.970924
2230.468750	-52.283310
2231.445312	-53.589413
2232.421875	-52.944866
2233.398438	-52.176800
2234.375000	-53.236736
2235.351562	-53.396725
2236.328125	-54.124088
2237.304688	-52.550545
2238.281250	-52.908134
2239.257812	-53.329876
2240.234375	-53.826462
2241.210938	-53.740746
2242.187500	-54.732624
2243.164062	-53.198277
2244.140625	-54.196499
2245.117188	-54.629559
2246.093750	-55.037674
2247.070312	-53.691990
2248.046875	-55.088757
2249.023438	-54.896191
2250.000000	-54.228893
2250.976562	-53.576389
2251.953125	-54.539669
2252.929688	-56.125408
2253.906250	-54.795238
2254.882812	-56.025219
2255.859375	-54.595913
2256.835938	-55.124977
2257.812500	-56.079697
2258.789062	-56.430115
2259.765625	-55.718201
2260.742188	-56.655258
2261.718750	-55.317280
2262.695312	-55.999607
2263.671875	-56.497089
2264.648438	-55.570450
2265.625000	-55.175861
2266.601562	-56.232594
2267.578125	-55.661118
2268.554688	-56.407810
2269.531250	-55.605812
2270.507812	-56.331310
2271.484375	-57.035957
2272.460938	-56.143711
2273.437500	-56.763332
2274.414062	-56.783623
2275.390625	-57.152798
2276.367188	-57.079208
2277.343750	-57.527542
2278.320312	-56.647453
2279.296875	-56.187954
2280.273438	-57.359623
2281.250000	-58.536015
2282.226562	-58.381908
2283.203125	-57.485722
2284.179688	-57.142548
2285.156250	-59.653965
2286.132812	-57.197388
2287.109375	-57.673706
2288.085938	-57.561817
2289.062500	-57.714161
2290.039062	-58.136158
2291.015625	-58.068325
2291.992188	-56.717274
2292.968750	-57.465809
2293.945312	-57.816555
2294.921875	-58.682510
2295.898438	-58.572582
2296.875000	-58.547657
2297.851562	-57.365120
2298.828125	-59.235359
2299.804688	-58.305611
2300.781250	-58.094395
2301.757812	-57.847858
2302.734375	-57.903099
2303.710938	-58.289230
2304.687500	-57.646194
2305.664062	-59.593922
2306.640625	-59.212990
2307.617188	-58.845779
2308.593750	-58.381889
2309.570312	-58.905602
2310.546875	-57.205086
2311.523438	-59.094563
2312.500000	-58.592907
2313.476562	-59.066196
2314.453125	-58.999126
2315.429688	-58.739548
2316.406250	-58.098057
2317.382812	-59.597122
2318.359375	-60.658134
2319.335938	-59.116024
2320.312500	-59.012970
2321.289062	-59.040508
2322.265625	-58.450207
2323.242188	-59.526199
2324.218750	-58.814972
2325.195312	-60.026527
2326.171875	-59.335014
2327.148438	-58.740810
2328.125000	-58.078884
2329.101562	-59.664719
2330.078125	-58.829269
2331.054688	-58.255817
2332.031250	-58.722691
2333.007812	-59.930775
2333.984375	-59.346024
2334.960938	-60.220455
2335.937500	-59.833473
2336.914062	-60.971699
2337.890625	-60.392040
2338.867188	-59.043034
2339.843750	-58.951996
2340.820312	-59.653400
2341.796875	-60.036682
2342.773438	-60.117702
2343.750000	-60.197853
2344.726562	-59.272179
2345.703125	-59.674004
2346.679688	-58.594963
2347.656250	-59.961475
2348.632812	-61.427624
2349.609375	-60.931042
2350.585938	-60.719543
2351.562500	-59.547523
2352.539062	-59.399693
2353.515625	-61.046219
2354.492188	-59.754177
2355.468750	-60.467766
2356.445312	-60.308159
2357.421875	-59.870132
2358.398438	-60.624668
2359.375000	-60.940742
2360.351562	-60.821411
2361.328125	-60.521389
2362.304688	-60.798935
2363.281250	-60.538929
2364.257812	-60.457661
2365.234375	-59.775013
2366.210938	-61.051430
2367.187500	-60.525860
2368.164062	-60.134323
2369.140625	-61.050625
2370.117188	-60.497856
2371.093750	-60.087254
2372.070312	-61.104408
2373.046875	-61.378620
2374.023438	-60.134197
2375.000000	-60.754063
2375.976562	-60.378510
2376.953125	-61.832344
2377.929688	-61.222866
2378.906250	-60.644478
2379.882812	-62.177273
2380.859375	-60.908569
2381.835938	-61.451206
2382.812500	-60.896282
2383.789062	-61.488449
2384.765625	-60.925823
2385.742188	-61.127113
2386.718750	-60.468945
2387.695312	-61.364929
2388.671875	-62.326736
2389.648438	-61.135571
2390.625000	-61.849270
2391.601562	-60.472294
2392.578125	-60.066917
2393.554688	-59.978592
2394.531250	-60.781506
2395.507812	-61.174995
2396.484375	-60.717079
2397.460938	-59.696545
2398.437500	-60.377296
2399.414062	-61.543442
2400.390625	-60.907482
2401.367188	-60.689632
2402.343750	-61.110294
2403.320312	-60.531574
2404.296875	-59.901913
2405.273438	-61.295464
2406.250000	-61.530064
2407.226562	-60.006210
2408.203125	-61.714546
2409.179688	-62.291344
2410.156250	-61.786842
2411.132812	-60.849270
2412.109375	-60.049496
2413.085938	-61.067345
2414.062500	-59.794678
2415.039062	-60.458145
2416.015625	-59.731621
2416.992188	-60.585709
2417.968750	-60.761089
2418.945312	-60.396248
2419.921875	-60.990318
2420.898438	-60.103920
2421.875000	-60.850849
2422.851562	-61.631008
2423.828125	-61.542370
2424.804688	-60.148441
2425.781250	-60.152664
2426.757812	-62.148724
2427.734375	-60.449360
2428.710938	-61.982185
2429.687500	-60.136944
2430.664062	-60.611313
2431.640625	-60.600281
2432.617188	-60.914036
2433.593750	-61.115292
2434.570312	-61.368065
2435.546875	-61.665257
2436.523438	-61.181602
2437.500000	-61.961330
2438.476562	-60.935226
2439.453125	-60.381878
2440.429688	-62.753693
2441.406250	-61.102982
2442.382812	-61.609749
2443.359375	-61.787209
2444.335938	-61.056835
2445.312500	-61.374958
2446.289062	-61.740669
2447.265625	-61.003525
2448.242188	-60.716251
2449.218750	-61.150669
2450.195312	-60.710526
2451.171875	-60.140522
2452.148438	-59.788914
2453.125000	-60.065990
2454.101562	-60.761898
2455.078125	-60.549377
2456.054688	-61.528954
2457.031250	-60.095879
2458.007812	-59.945641
2458.984375	-61.840488
2459.960938	-60.490341
2460.937500	-60.920101
2461.914062	-60.129635
2462.890625	-60.334724
2463.867188	-59.808968
2464.843750	-59.314625
2465.820312	-60.945744
2466.796875	-59.892960
2467.773438	-61.546352
2468.750000	-61.275715
2469.726562	-61.417805
2470.703125	-60.667084
2471.679688	-61.238079
2472.656250	-61.768417
2473.632812	-59.098747
2474.609375	-61.562344
2475.585938	-61.329254
2476.562500	-59.792786
2477.539062	-61.755882
2478.515625	-60.646511
2479.492188	-60.433010
2480.468750	-60.447983
2481.445312	-60.904015
2482.421875	-60.346500
2483.398438	-60.717934
2484.375000	-60.735394
2485.351562	-60.380165
2486.328125	-59.403046
2487.304688	-59.394463
2488.281250	-60.432281
2489.257812	-59.729156
2490.234375	-59.515503
2491.210938	-60.322834
2492.187500	-60.593674
2493.164062	-60.275425
2494.140625	-59.237125
2495.117188	-60.543789
2496.093750	-60.130989
2497.070312	-59.464504
2498.046875	-60.030331
2499.023438	-60.321011
2500.000000	-60.478832
2500.976562	-59.204475
2501.953125	-60.132164
2502.929688	-60.200893
2503.906250	-60.206985
2504.882812	-59.513638
2505.859375	-60.548958
2506.835938	-60.175568
2507.812500	-59.777302
2508.789062	-60.739147
2509.765625	-60.518589
2510.742188	-60.748547
2511.718750	-59.791931
2512.695312	-58.577972
2513.671875	-60.201126
2514.648438	-60.161156
2515.625000	-59.772636
2516.601562	-59.579887
2517.578125	-59.187859
2518.554688	-58.968559
2519.531250	-60.267838
2520.507812	-59.751080
2521.484375	-60.335880
2522.460938	-59.723331
2523.437500	-59.788582
2524.414062	-59.090439
2525.390625	-59.402966
2526.367188	-59.112225
2527.343750	-59.446114
2528.320312	-58.426369
2529.296875	-58.361794
2530.273438	-59.646679
2531.250000	-59.319386
2532.226562	-58.168041
2533.203125	-58.960114
2534.179688	-60.549591
2535.156250	-60.491516
2536.132812	-59.533642
2537.109375	-59.897278
2538.085938	-58.333687
2539.062500	-58.571220
2540.039062	-60.346348
2541.015625	-58.156982
2541.992188	-59.445423
2542.968750	-58.189064
2543.945312	-58.156685
2544.921875	-59.874733
2545.898438	-59.304703
2546.875000	-58.313091
2547.851562	-58.599258
2548.828125	-58.568275
2549.804688	-57.422581
2550.781250	-57.177826
2551.757812	-58.129478
2552.734375	-58.173618
2553.710938	-56.616428
2554.687500	-58.293114
2555.664062	-60.412754
2556.640625	-58.206429
2557.617188	-58.046619
2558.593750	-57.292622
2559.570312	-58.314426
2560.546875	-57.835888
2561.523438	-59.061985
2562.500000	-59.475666
2563.476562	-58.284351
2564.453125	-56.466057
2565.429688	-57.830139
2566.406250	-59.024986
2567.382812	-57.677273
2568.359375	-57.690208
2569.335938	-57.296947
2570.312500	-57.356453
2571.289062	-56.838043
2572.265625	-57.674656
2573.242188	-57.979004
2574.218750	-57.139210
2575.195312	-57.509319
2576.171875	-56.721985
2577.148438	-56.651146
2578.125000	-55.812389
2579.101562	-57.081787
2580.078125	-56.459690
2581.054688	-56.802563
2582.031250	-57.130890
2583.007812	-57.302704
2583.984375	-57.110611
2584.960938	-56.662838
2585.937500	-58.006500
2586.914062	-56.713310
2587.890625	-55.494339
2588.867188	-57.097622
2589.843750	-57.111275
2590.820312	-56.225117
2591.796875	-55.168537
2592.773438	-56.912750
2593.750000	-55.240356
2594.726562	-57.536129
2595.703125	-57.006126
2596.679688	-56.131466
2597.656250	-54.709820
2598.632812	-54.482513
2599.609375	-55.782555
2600.585938	-55.541206
2601.562500	-56.566704
2602.539062	-56.117519
2603.515625	-55.132080
2604.492188	-57.293724
2605.468750	-55.916775
2606.445312	-54.094967
2607.421875	-55.810207
2608.398438	-53.441307
2609.375000	-54.704422
2610.351562	-54.843044
2611.328125	-55.666111
2612.304688	-55.623001
2613.281250	-53.916775
2614.257812	-55.270409
2615.234375	-54.684433
2616.210938	-54.585041
2617.187500	-55.892662
2618.164062	-54.178509
2619.140625	-53.685040
2620.117188	-54.279976
2621.093750	-53.772552
2622.070312	-55.318054
2623.046875	-55.191814
2624.023438	-54.419376
2625.000000	-54.338604
2625.976562	-53.780849
2626.953125	-54.552479
2627.929688	-53.550816
2628.906250	-53.795399
2629.882812	-53.660423
2630.859375	-52.145100
2631.835938	-52.914528
2632.812500	-52.855995
2633.789062	-53.417362
2634.765625	-54.450119
2635.742188	-53.634132
2636.718750	-53.456821
2637.695312	-54.021412
2638.671875	-53.459724
2639.648438	-52.069324
2640.625000	-53.092392
2641.601562	-52.015144
2642.578125	-52.342632
2643.554688	-51.877403
2644.531250	-50.885880
2645.507812	-51.528969
2646.484375	-52.704563
2647.460938	-50.621239
2648.437500	-51.437973
2649.414062	-51.296215
2650.390625	-50.805046
2651.367188	-51.670990
2652.343750	-50.347782
2653.320312	-52.577835
2654.296875	-52.226780
2655.273438	-50.857410
2656.250000	-49.381191
2657.226562	-50.616917
2658.203125	-50.025600
2659.179688	-50.313877
2660.156250	-50.434258
2661.132812	-50.596573
2662.109375	-51.034172
2663.085938	-51.056808
2664.062500	-51.974197
2665.039062	-49.393467
2666.015625	-50.665680
2666.992188	-50.145077
2667.968750	-48.573208
2668.945312	-48.767490
2669.921875	-49.631519
2670.898438	-49.606678
2671.875000	-48.589771
2672.851562	-48.766014
2673.828125	-50.195320
2674.804688	-48.617771
2675.781250	-49.052578
2676.757812	-49.523849
2677.734375	-49.220959
2678.710938	-48.057369
2679.687500	-48.300697
2680.664062	-47.861076
2681.640625	-47.971939
2682.617188	-48.133072
2683.593750	-47.504841
2684.570312	-48.345699
2685.546875	-49.079758
2686.523438	-48.577572
2687.500000	-46.144642
2688.476562	-47.354519
2689.453125	-47.115467
2690.429688	-47.674519
2691.406250	-46.891232
2692.382812	-46.440418
2693.359375	-46.170883
2694.335938	-47.363407
2695.312500	-46.027851
2696.289062	-45.715374
2697.265625	-44.999279
2698.242188	-44.713326
2699.218750	-45.017036
2700.195312	-45.372185
2701.171875	-44.997990
2702.148438	-44.989861
2703.125000	-43.423187
2704.101562	-44.811146
2705.078125	-44.550270
2706.054688	-43.139149
2707.031250	-44.462311
2708.007812	-43.479767
2708.984375	-42.186783
2709.960938	-43.511463
2710.937500	-43.119762
2711.914062	-44.050838
2712.890625	-43.510479
2713.867188	-43.503681
2714.843750	-43.632252
2715.820312	-42.367874
2716.796875	-41.987915
2717.773438	-43.051144
2718.750000	-42.673222
2719.726562	-43.129059
2720.703125	-41.984783
2721.679688	-42.688229
2722.656250	-41.789577
2723.632812	-44.485264
2724.609375	-41.789494
2725.585938	-42.558212
2726.562500	-41.838432
2727.539062	-41.822506
2728.515625	-42.414360
2729.492188	-42.186306
2730.468750	-42.259548
2731.445312	-42.971573
2732.421875	-44.052307
2733.398438	-43.857773
2734.375000	-42.359615
2735.351562	-42.760586
2736.328125	-43.296524
2737.304688	-43.382244
2738.281250	-42.623363
2739.257812	-43.025490
2740.234375	-43.645432
2741.210938	-44.243019
2742.187500	-45.209705
2743.164062	-43.847118
2744.140625	-44.278748
2745.117188	-42.741749
2746.093750	-44.120003
2747.070312	-45.154503
2748.046875	-44.791748
2749.023438	-44.309933
2750.000000	-44.318596
2750.976562	-45.701290
2751.953125	-44.466309
2752.929688	-44.277332
2753.906250	-45.808784
2754.882812	-44.597996
2755.859375	-46.436520
2756.835938	-45.756130
2757.812500	-45.386707
2758.789062	-44.366570
2759.765625	-45.855766
2760.742188	-45.680748
2761.718750	-45.338554
2762.695312	-45.714756
2763.671875	-46.115181
2764.648438	-47.328392
2765.625000	-46.304386
2766.601562	-47.451290
2767.578125	-45.757408
2768.554688	-47.224117
2769.531250	-47.575661
2770.507812	-46.762749
2771.484375	-46.140976
2772.460938	-48.251907
2773.437500	-49.156914
2774.414062	-47.838692
2775.390625	-47.529140
2776.367188	-47.603867
2777.343750	-48.236294
2778.320312	-48.373169
2779.296875	-48.846527
2780.273438	-49.826248
2781.250000	-49.677700
2782.226562	-48.498592
2783.203125	-49.820187
2784.179688	-49.657463
2785.156250	-49.542812
2786.132812	-49.504276
2787.109375	-50.135761
2788.085938	-49.576664
2789.062500	-51.792355
2790.039062	-49.669430
2791.015625	-49.597374
2791.992188	-50.213593
2792.968750	-50.302601
2793.945312	-49.687668
2794.921875	-49.781036
2795.898438	-49.988449
2796.875000	-51.182934
2797.851562	-50.606747
2798.828125	-51.043629
2799.804688	-50.759743
2800.781250	-50.812256
2801.757812	-51.029373
2802.734375	-50.647980
2803.710938	-51.828419
2804.687500	-52.141788
2805.664062	-51.469284
2806.640625	-50.130390
2807.617188	-50.279320
2808.593750	-51.452034
2809.570312	-51.779202
2810.546875	-52.632126
2811.523438	-52.302197
2812.500000	-52.124889
2813.476562	-51.923557
2814.453125	-51.980259
2815.429688	-51.541821
2816.406250	-51.745903
2817.382812	-51.859245
2818.359375	-51.432404
2819.335938	-50.783329
2820.312500	-50.715424
2821.289062	-52.189209
2822.265625	-51.922169
2823.242188	-51.015812
2824.218750	-51.461735
2825.195312	-52.854874
2826.171875	-52.376949
2827.148438	-53.408634
2828.125000	-52.347931
2829.101562	-52.142941
2830.078125	-53.432121
2831.054688	-51.622753
2832.031250	-51.662605
2833.007812	-52.233162
2833.984375	-52.365414
2834.960938	-53.566006
2835.937500	-52.831203
2836.914062	-52.710735
2837.890625	-53.298416
2838.867188	-54.122456
2839.843750	-53.073788
2840.820312	-52.931202
2841.796875	-51.937698
2842.773438	-53.258083
2843.750000	-53.380730
2844.726562	-53.743382
2845.703125	-53.075157
2846.679688	-52.597771
2847.656250	-53.872147
2848.632812	-53.383350
2849.609375	-53.119984
2850.585938	-52.815754
2851.562500	-54.195351
2852.539062	-53.670135
2853.515625	-53.484875
2854.492188	-54.313225
2855.468750	-52.847164
2856.445312	-53.133591
2857.421875	-55.072727
2858.398438	-53.716877
2859.375000	-54.709026
2860.351562	-54.608212
2861.328125	-53.361748
2862.304688	-54.555206
2863.281250	-54.372257
2864.257812	-52.918072
2865.234375	-53.478703
2866.210938	-54.648876
2867.187500	-54.590134
2868.164062	-53.091206
2869.140625	-53.782284
2870.117188	-53.978973
2871.093750	-53.646317
2872.070312	-54.593449
2873.046875	-53.767910
2874.023438	-54.088894
2875.000000	-54.593121
2875.976562	-54.713898
2876.953125	-55.107292
2877.929688	-54.483349
2878.906250	-53.183926
2879.882812	-55.184280
2880.859375	-54.132156
2881.835938	-53.945301
2882.812500	-53.821972
2883.789062	-54.519989
2884.765625	-54.816002
2885.742188	-54.672352
2886.718750	-54.195347
2887.695312	-53.997578
2888.671875	-54.566528
2889.648438	-54.661865
2890.625000	-54.966320
2891.601562	-55.800171
2892.578125	-55.243675
2893.554688	-54.597126
2894.531250	-54.284599
2895.507812	-55.126427
2896.484375	-55.221569
2897.460938	-55.182346
2898.437500	-54.460255
2899.414062	-53.837791
2900.390625	-53.795658
2901.367188	-54.619583
2902.343750	-54.903431
2903.320312	-54.838409
2904.296875	-55.932281
2905.273438	-55.925072
2906.250000	-55.005627
2907.226562	-54.651318
2908.203125	-54.516209
2909.179688	-55.191757
2910.156250	-57.540195
2911.132812	-55.769382
2912.109375	-54.465099
2913.085938	-55.802364
2914.062500	-55.850822
2915.039062	-56.234444
2916.015625	-56.341602
2916.992188	-55.718781
2917.968750	-54.721233
2918.945312	-55.441788
2919.921875	-55.458282
2920.898438	-54.687721
2921.875000	-55.042828
2922.851562	-56.668087
2923.828125	-56.253494
2924.804688	-55.590221
2925.781250	-54.523579
2926.757812	-55.095451
2927.734375	-55.794464
2928.710938	-56.400291
2929.687500	-55.980595
2930.664062	-55.589130
2931.640625	-57.286678
2932.617188	-56.377506
2933.593750	-56.353436
2934.570312	-55.076263
2935.546875	-56.250195
2936.523438	-55.613396
2937.500000	-54.893681
2938.476562	-56.206680
2939.453125	-54.624874
2940.429688	-55.569714
2941.406250	-55.016060
2942.382812	-55.436279
2943.359375	-54.801361
2944.335938	-54.987843
2945.312500	-55.634300
2946.289062	-54.910191
2947.265625	-55.630455
2948.242188	-56.444717
2949.218750	-55.784187
2950.195312	-56.118881
2951.171875	-55.170029
2952.148438	-55.795753
2953.125000	-55.428547
2954.101562	-54.671413
2955.078125	-56.174583
2956.054688	-55.270172
2957.031250	-55.763981
2958.007812	-55.896473
2958.984375	-55.770809
2959.960938	-56.677517
2960.937500	-54.541649
2961.914062	-55.434189
2962.890625	-56.039513
2963.867188	-55.564926
2964.843750	-55.354752
2965.820312	-55.780331
2966.796875	-55.797871
2967.773438	-56.230648
2968.750000	-55.789734
2969.726562	-56.512695
2970.703125	-56.912346
2971.679688	-55.929379
2972.656250	-56.140865
2973.632812	-56.647503
2974.609375	-56.813278
2975.585938	-55.188354
2976.562500	-55.085114
2977.539062	-56.046017
2978.515625	-55.710262
2979.492188	-55.249538
2980.468750	-56.936283
2981.445312	-54.994606
2982.421875	-55.744549
2983.398438	-55.578327
2984.375000	-56.304695
2985.351562	-56.808655
2986.328125	-56.243687
2987.304688	-56.111805
2988.281250	-55.263802
2989.257812	-56.427856
2990.234375	-56.916313
2991.210938	-56.073605
2992.187500	-54.786274
2993.164062	-55.407524
2994.140625	-56.022144
2995.117188	-56.369759
2996.093750	-57.197403
2997.070312	-55.887280
2998.046875	-56.783905
2999.023438	-56.565849
3000.000000	-55.664169
3000.976562	-55.242283
3001.953125	-56.178711
3002.929688	-56.625229
3003.906250	-55.669167
3004.882812	-56.463341
3005.859375	-55.388641
3006.835938	-53.897980
3007.812500	-56.616131
3008.789062	-55.746067
3009.765625	-55.591576
3010.742188	-55.339649
3011.718750	-54.969868
3012.695312	-55.879856
3013.671875	-55.724205
3014.648438	-56.022564
3015.625000	-56.626331
3016.601562	-56.208366
3017.578125	-55.129150
3018.554688	-55.493755
3019.531250	-55.199619
3020.507812	-56.451027
3021.484375	-56.629528
3022.460938	-55.723003
3023.437500	-56.258007
3024.414062	-55.184792
3025.390625	-56.714657
3026.367188	-55.346886
3027.343750	-56.043045
3028.320312	-54.626133
3029.296875	-55.884762
3030.273438	-55.535542
3031.250000	-55.714813
3032.226562	-56.077526
3033.203125	-56.520416
3034.179688	-55.972122
3035.156250	-55.205452
3036.132812	-55.657043
3037.109375	-54.789577
3038.085938	-55.625744
3039.062500	-55.547211
3040.039062	-54.935535
3041.015625	-55.033955
3041.992188	-55.242023
3042.968750	-54.694225
3043.945312	-55.650032
3044.921875	-56.351673
3045.898438	-55.249458
3046.875000	-55.113319
3047.851562	-55.230965
3048.828125	-56.236698
3049.804688	-54.727440
3050.781250	-55.351395
3051.757812	-55.226845
3052.734375	-55.857590
3053.710938	-55.440876
3054.687500	-55.284779
3055.664062	-56.339039
3056.640625	-54.433243
3057.617188	-55.344940
3058.593750	-54.540009
3059.570312	-55.584126
3060.546875	-55.225491
3061.523438	-54.428490
3062.500000	-54.872658
3063.476562	-55.364758
3064.453125	-54.440971
3065.429688	-55.498158
3066.406250	-56.055180
3067.382812	-54.807163
3068.359375	-55.132568
3069.335938	-55.143265
3070.312500	-55.855770
3071.289062	-54.398876
3072.265625	-53.637852
3073.242188	-54.742989
3074.218750	-55.246338
3075.195312	-55.212444
3076.171875	-53.583218
3077.148438	-54.050491
3078.125000	-54.549156
3079.101562	-54.590267
3080.078125	-53.574783
3081.054688	-54.621452
3082.031250	-54.565292
3083.007812	-53.040119
3083.984375	-55.663673
3084.960938	-55.023472
3085.937500	-54.213245
3086.914062	-54.430580
3087.890625	-55.792988
3088.867188	-54.940327
3089.843750	-53.819973
3090.820312	-55.044403
3091.796875	-53.466942
3092.773438	-54.449963
3093.750000	-55.133522
3094.726562	-53.931805
3095.703125	-54.142559
3096.679688	-53.635181
3097.656250	-54.279549
3098.632812	-53.172382
3099.609375	-53.541676
3100.585938	-53.127708
3101.562500	-53.008316
3102.539062	-52.873375
3103.515625	-53.468689
3104.492188	-53.973690
3105.468750	-53.102154
3106.445312	-53.143589
3107.421875	-53.261078
3108.398438	-53.469345
3109.375000	-53.913589
3110.351562	-53.176601
3111.328125	-53.676071
3112.304688	-53.012707
3113.281250	-52.710808
3114.257812	-52.037022
3115.234375	-52.628052
3116.210938	-53.104801
3117.187500	-54.299480
3118.164062	-52.815662
3119.140625	-51.548672
3120.117188	-52.326096
3121.093750	-52.505760
3122.070312	-52.796207
3123.046875	-52.386883
3124.023438	-52.969471
3125.000000	-53.059265
3125.976562	-50.821663
3126.953125	-52.756351
3127.929688	-53.512436
3128.906250	-52.857624
3129.882812	-52.042812
3130.859375	-52.031429
3131.835938	-51.969013
3132.812500	-51.920017
3133.789062	-52.461006
3134.765625	-52.331421
3135.742188	-51.901051
3136.718750	-51.836483
3137.695312	-51.862438
3138.671875	-53.141987
3139.648438	-51.469742
3140.625000	-52.463291
3141.601562	-52.180069
3142.578125	-51.190357
3143.554688	-52.715492
3144.531250	-51.068600
3145.507812	-51.654526
3146.484375	-52.166412
3147.460938	-50.542030
3148.437500	-50.767925
3149.414062	-50.950329
3150.390625	-51.702076
3151.367188	-51.155460
3152.343750	-50.591736
3153.320312	-51.045303
3154.296875	-50.126392
3155.273438	-50.622520
3156.250000	-51.423035
3157.226562	-49.832573
3158.203125	-49.541641
3159.179688	-50.795692
3160.156250	-51.252834
3161.132812	-52.205883
3162.109375	-50.105766
3163.085938	-50.581661
3164.062500	-51.589882
3165.039062	-50.977745
3166.015625	-50.612247
3166.992188	-49.785175
3167.968750	-50.495884
3168.945312	-49.869267
3169.921875	-48.885647
3170.898438	-49.274326
3171.875000	-49.853722
3172.851562	-50.067940
3173.828125	-49.637085
3174.804688	-50.726421
3175.781250	-49.826641
3176.757812	-49.563774
3177.734375	-48.679619
3178.710938	-49.241314
3179.687500	-48.249706
3180.664062	-49.079758
3181.640625	-48.550468
3182.617188	-48.377762
3183.593750	-48.783867
3184.570312	-47.701206
3185.546875	-49.279366
3186.523438	-48.546429
3187.500000	-47.914993
3188.476562	-47.770454
3189.453125	-48.184113
3190.429688	-47.408092
3191.406250	-48.234371
3192.382812	-50.121613
3193.359375	-48.823895
3194.335938	-48.730217
3195.312500	-49.167004
3196.289062	-48.103146
3197.265625	-46.993656
3198.242188	-49.096897
3199.218750	-47.611366
3200.195312	-48.080944
3201.171875	-46.772949
3202.148438	-47.630280
3203.125000	-48.020523
3204.101562	-46.879238
3205.078125	-46.929638
3206.054688	-46.831318
3207.031250	-46.771416
3208.007812	-46.110813
3208.984375	-46.377182
3209.960938	-47.024483
3210.937500	-45.725765
3211.914062	-45.704479
3212.890625	-47.335712
3213.867188	-45.840424
3214.843750	-46.738811
3215.820312	-46.240784
3216.796875	-45.986393
3217.773438	-45.648594
3218.750000	-45.105595
3219.726562	-46.073833
3220.703125	-45.570606
3221.679688	-46.399368
3222.656250	-45.029179
3223.632812	-44.622227
3224.609375	-45.534004
3225.585938	-45.519817
3226.562500	-46.080429
3227.539062	-45.948330
3228.515625	-44.833794
3229.492188	-44.070343
3230.468750	-44.375336
3231.445312	-44.017418
3232.421875	-45.011375
3233.398438	-43.345131
3234.375000	-43.629368
3235.351562	-42.840023
3236.328125	-44.947170
3237.304688	-43.459568
3238.281250	-44.448940
3239.257812	-43.614281
3240.234375	-43.150730
3241.210938	-42.192749
3242.187500	-41.606365
3243.164062	-41.727917
3244.140625	-42.339611
3245.117188	-42.915924
3246.093750	-43.092705
3247.070312	-42.598171
3248.046875	-42.066738
3249.023438	-42.567104
3250.000000	-42.119610
3250.976562	-40.657185
3251.953125	-41.291275
3252.929688	-40.574295
3253.906250	-41.159229
3254.882812	-41.476944
3255.859375	-40.844715
3256.835938	-40.847458
3257.812500	-41.010448
3258.789062	-42.411579
3259.765625	-40.817368
3260.742188	-40.914593
3261.718750	-40.993481
3262.695312	-40.853207
3263.671875	-40.991917
3264.648438	-39.512985
3265.625000	-41.074818
3266.601562	-39.917698
3267.578125	-41.248600
3268.554688	-40.610966
3269.531250	-40.837528
3270.507812	-40.943405
3271.484375	-39.830410
3272.460938	-40.409393
3273.437500	-42.421947
3274.414062	-42.001694
3275.390625	-38.841824
3276.367188	-40.297241
3277.343750	-40.050198
3278.320312	-41.802601
3279.296875	-39.975189
3280.273438	-39.091351
3281.250000	-39.582802
3282.226562	-40.875420
3283.203125	-41.217598
3284.179688	-41.567493
3285.156250	-40.664303
3286.132812	-41.056595
3287.109375	-42.378563
3288.085938	-41.364334
3289.062500	-41.291039
3290.039062	-41.099468
3291.015625	-41.527325
3291.992188	-41.850067
3292.968750	-41.717056
3293.945312	-42.284824
3294.921875	-41.839542
3295.898438	-42.204418
3296.875000	-42.684246
3297.851562	-42.492714
3298.828125	-42.490665
3299.804688	-42.059170
3300.781250	-42.842735
3301.757812	-42.056187
3302.734375	-42.915039
3303.710938	-43.353565
3304.687500	-43.265312
3305.664062	-44.008610
3306.640625	-44.131771
3307.617188	-44.564125
3308.593750	-45.168839
3309.570312	-42.993862
3310.546875	-43.161453
3311.523438	-44.253426
3312.500000	-43.210564
3313.476562	-46.061153
3314.453125	-44.821564
3315.429688	-45.346191
3316.406250	-44.517090
3317.382812	-44.520046
3318.359375	-44.074001
3319.335938	-45.424004
3320.312500	-44.635708
3321.289062	-44.901131
3322.265625	-45.623661
3323.242188	-44.463268
3324.218750	-44.900528
3325.195312	-45.809395
3326.171875	-45.421040
3327.148438	-45.846272
3328.125000	-45.249542
3329.101562	-46.810894
3330.078125	-46.551525
3331.054688	-44.770428
3332.031250	-46.831726
3333.007812	-47.545330
3333.984375	-48.171856
3334.960938	-47.339970
3335.937500	-46.490578
3336.914062	-46.337437
3337.890625	-46.786060
3338.867188	-46.153851
3339.843750	-45.692135
3340.820312	-46.593353
3341.796875	-47.066940
3342.773438	-48.299751
3343.750000	-47.240322
3344.726562	-47.748562
3345.703125	-47.459915
3346.679688	-48.272285
3347.656250	-46.329266
3348.632812	-48.349579
3349.609375	-48.793762
3350.585938	-47.817249
3351.562500	-48.357670
3352.539062	-47.680527
3353.515625	-47.416340
3354.492188	-47.985798
3355.468750	-47.880196
3356.445312	-48.969219
3357.421875	-47.835655
3358.398438	-47.700237
3359.375000	-50.096695
3360.351562	-48.849121
3361.328125	-49.383675
3362.304688	-48.901558
3363.281250	-49.332050
3364.257812	-47.923668
3365.234375	-48.712341
3366.210938	-49.362122
3367.187500	-49.809574
3368.164062	-48.518181
3369.140625	-48.566299
3370.117188	-48.873615
3371.093750	-49.547688
3372.070312	-49.512833
3373.046875	-50.013187
3374.023438	-49.774860
3375.000000	-50.541473
3375.976562	-49.509720
3376.953125	-48.763988
3377.929688	-49.154587
3378.906250	-50.085876
3379.882812	-50.003193
3380.859375	-50.354233
3381.835938	-49.261795
3382.812500	-50.864986
3383.789062	-49.613808
3384.765625	-49.576565
3385.742188	-48.907154
3386.718750	-49.596619
3387.695312	-51.625004
3388.671875	-51.143436
3389.648438	-51.269772
3390.625000	-51.132221
3391.601562	-52.206768
3392.578125	-50.183250
3393.554688	-51.398323
3394.531250	-52.795681
3395.507812	-52.556892
3396.484375	-51.282139
3397.460938	-51.351681
3398.437500	-50.718563
3399.414062	-51.139233
3400.390625	-51.443275
3401.367188	-50.957478
3402.343750	-51.207924
3403.320312	-51.826462
3404.296875	-51.944187
3405.273438	-51.431515
3406.250000	-51.455475
3407.226562	-51.045879
3408.203125	-51.666744
3409.179688	-51.274357
3410.156250	-49.763409
3411.132812	-49.771992
3412.109375	-51.959267
3413.085938	-52.932728
3414.062500	-51.991623
3415.039062	-51.670132
3416.015625	-51.283466
3416.992188	-52.907093
3417.968750	-52.305046
3418.945312	-50.627819
3419.921875	-51.261349
3420.898438	-52.059769
3421.875000	-51.616112
3422.851562	-52.436890
3423.828125	-52.980160
3424.804688	-51.911343
3425.781250	-52.812454
3426.757812	-51.777050
3427.734375	-51.383419
3428.710938	-53.938854
3429.687500	-52.788162
3430.664062	-52.300056
3431.640625	-51.804028
3432.617188	-52.085884
3433.593750	-52.209053
3434.570312	-52.359028
3435.546875	-52.895760
3436.523438	-52.789719
3437.500000	-51.971279
3438.476562	-51.663601
3439.453125	-52.893208
3440.429688	-53.571884
3441.406250	-51.408352
3442.382812	-51.604443
3443.359375	-54.006897
3444.335938	-54.045860
3445.312500	-54.004379
3446.289062	-53.588131
3447.265625	-53.466068
3448.242188	-53.117592
3449.218750	-52.807068
3450.195312	-52.897602
3451.171875	-52.577847
3452.148438	-53.179070
3453.125000	-53.845226
3454.101562	-55.127148
3455.078125	-54.740204
3456.054688	-53.186005
3457.031250	-52.766445
3458.007812	-52.957230
3458.984375	-53.606449
3459.960938	-53.317341
3460.937500	-53.665386
3461.914062	-52.487682
3462.890625	-53.413910
3463.867188	-53.154015
3464.843750	-53.552483
3465.820312	-52.922131
3466.796875	-54.213821
3467.773438	-53.259438
3468.750000	-53.276543
3469.726562	-52.798996
3470.703125	-53.118607
3471.679688	-53.573589
3472.656250	-53.815475
3473.632812	-52.906048
3474.609375	-52.830921
3475.585938	-55.308895
3476.562500	-54.321968
3477.539062	-54.944225
3478.515625	-54.244793
3479.492188	-52.720104
3480.468750	-53.156952
3481.445312	-54.352356
3482.421875	-54.656101
3483.398438	-54.440521
3484.375000	-53.557125
3485.351562	-52.979179
3486.328125	-55.190712
3487.304688	-54.388538
3488.281250	-53.642929
3489.257812	-53.094406
3490.234375	-54.985302
3491.210938	-53.377342
3492.187500	-53.922836
3493.164062	-54.175964
3494.140625	-53.975132
3495.117188	-54.161469
3496.093750	-54.520714
3497.070312	-53.781971
3498.046875	-54.787544
3499.023438	-53.355476
3500.000000	-53.708759
3500.976562	-54.748802
3501.953125	-53.967110
3502.929688	-54.246254
3503.906250	-53.776466
3504.882812	-53.347851
3505.859375	-55.433193
3506.835938	-54.744576
3507.812500	-54.386169
3508.789062	-54.673912
3509.765625	-54.262280
3510.742188	-54.208969
3511.718750	-54.944092
3512.695312	-55.364044
3513.671875	-54.996052
3514.648438	-54.225620
3515.625000	-54.193676
3516.601562	-54.741737
3517.578125	-53.709015
3518.554688	-54.689610
3519.531250	-55.269352
3520.507812	-54.483215
3521.484375	-54.745865
3522.460938	-53.608662
3523.437500	-53.349133
3524.414062	-54.147224
3525.390625	-54.032219
3526.367188	-54.376431
3527.343750	-54.524345
3528.320312	-55.022602
3529.296875	-54.946278
3530.273438	-55.297951
3531.250000	-55.117153
3532.226562	-55.122719
3533.203125	-53.969337
3534.179688	-54.401237
3535.156250	-54.041229
3536.132812	-53.574947
3537.109375	-54.115356
3538.085938	-53.663643
3539.062500	-54.577263
3540.039062	-55.862007
3541.015625	-54.732903
3541.992188	-54.869656
3542.968750	-54.929482
3543.945312	-54.657867
3544.921875	-53.310978
3545.898438	-54.447868
3546.875000	-55.654743
3547.851562	-54.337093
3548.828125	-54.242455
3549.804688	-54.843819
3550.781250	-55.176453
3551.757812	-54.033600
3552.734375	-55.103535
3553.710938	-55.068810
3554.687500	-54.958317
3555.664062	-54.923195
3556.640625	-54.141869
3557.617188	-54.816147
3558.593750	-55.624416
3559.570312	-55.095951
3560.546875	-55.170906
3561.523438	-55.476910
3562.500000	-53.982548
3563.476562	-53.338131
3564.453125	-54.906193
3565.429688	-54.872536
3566.406250	-53.424725
3567.382812	-54.035431
3568.359375	-55.455761
3569.335938	-54.870544
3570.312500	-55.488686
3571.289062	-53.674892
3572.265625	-53.678066
3573.242188	-54.959515
3574.218750	-54.009277
3575.195312	-55.124557
3576.171875	-55.065170
3577.148438	-54.895714
3578.125000	-53.806721
3579.101562	-55.093563
3580.078125	-54.452049
3581.054688	-53.821575
3582.031250	-53.419682
3583.007812	-54.809132
3583.984375	-54.270988
3584.960938	-55.540501
3585.937500	-54.969498
3586.914062	-53.703163
3587.890625	-54.311295
3588.867188	-55.188515
3589.843750	-54.723713
3590.820312	-54.530384
3591.796875	-54.474476
3592.773438	-53.655258
3593.750000	-55.475925
3594.726562	-53.633732
3595.703125	-53.958355
3596.679688	-55.217083
3597.656250	-54.267437
3598.632812	-53.381615
3599.609375	-53.993904
3600.585938	-53.552174
3601.562500	-54.891613
3602.539062	-52.549736
3603.515625	-54.969017
3604.492188	-54.679764
3605.468750	-55.642715
3606.445312	-54.778606
3607.421875	-53.368698
3608.398438	-52.754871
3609.375000	-53.863186
3610.351562	-52.845478
3611.328125	-53.519985
3612.304688	-53.214958
3613.281250	-54.701729
3614.257812	-55.493458
3615.234375	-53.606468
3616.210938	-54.590923
3617.187500	-54.389294
3618.164062	-54.346092
3619.140625	-55.613602
3620.117188	-52.998901
3621.093750	-52.981586
3622.070312	-53.649548
3623.046875	-54.332119
3624.023438	-53.634293
3625.000000	-52.349556
3625.976562	-53.822506
3626.953125	-52.960545
3627.929688	-54.284016
3628.906250	-54.028008
3629.882812	-54.223301
3630.859375	-53.645416
3631.835938	-54.967785
3632.812500	-55.056938
3633.789062	-53.427429
3634.765625	-52.189098
3635.742188	-54.722366
3636.718750	-53.806404
3637.695312	-53.816952
3638.671875	-52.630207
3639.648438	-53.553604
3640.625000	-53.086864
3641.601562	-52.648853
3642.578125	-53.546501
3643.554688	-53.150135
3644.531250	-52.592056
3645.507812	-53.289330
3646.484375	-53.959644
3647.460938	-53.476879
3648.437500	-54.058544
3649.414062	-54.038193
3650.390625	-53.907890
3651.367188	-53.096577
3652.343750	-53.623291
3653.320312	-52.853985
3654.296875	-52.724186
3655.273438	-53.041920
3656.250000	-53.146370
3657.226562	-52.721256
3658.203125	-53.759239
3659.179688	-54.409569
3660.156250	-53.557823
3661.132812	-52.805359
3662.109375	-52.900181
3663.085938	-53.741581
3664.062500	-52.861504
3665.039062	-52.558651
3666.015625	-52.181530
3666.992188	-51.809193
3667.968750	-54.275440
3668.945312	-53.296055
3669.921875	-53.052963
3670.898438	-52.533146
3671.875000	-52.410824
3672.851562	-53.011719
3673.828125	-52.822071
3674.804688	-53.236786
3675.781250	-52.995087
3676.757812	-52.130051
3677.734375	-51.941330
3678.710938	-52.444492
3679.687500	-52.237282
3680.664062	-52.550861
3681.640625	-52.559177
3682.617188	-52.704388
3683.593750	-52.337070
3684.570312	-52.777687
3685.546875	-52.201309
3686.523438	-52.762344
3687.500000	-51.810467
3688.476562	-50.972225
3689.453125	-51.503284
3690.429688	-51.197388
3691.406250	-51.383457
3692.382812	-51.189896
3693.359375	-50.471786
3694.335938	-51.992382
3695.312500	-51.837696
3696.289062	-51.681793
3697.265625	-51.419086
3698.242188	-51.005436
3699.218750	-50.745655
3700.195312	-51.021313
3701.171875	-50.559704
3702.148438	-51.393642
3703.125000	-50.187462
3704.101562	-49.772778
3705.078125	-50.544701
3706.054688	-50.140430
3707.031250	-51.382607
3708.007812	-51.748077
3708.984375	-52.639366
3709.960938	-50.310780
3710.937500	-50.707489
3711.914062	-50.073204
3712.890625	-51.795055
3713.867188	-51.787960
3714.843750	-50.916000
3715.820312	-51.509705
3716.796875	-50.453720
3717.773438	-50.658726
3718.750000	-50.572758
3719.726562	-50.951523
3720.703125	-49.550949
3721.679688	-49.713478
3722.656250	-49.173668
3723.632812	-50.652702
3724.609375	-49.348957
3725.585938	-48.557713
3726.562500	-49.664314
3727.539062	-49.727112
3728.515625	-49.887787
3729.492188	-49.392506
3730.468750	-48.955021
3731.445312	-49.672268
3732.421875	-48.504944
3733.398438	-49.655254
3734.375000	-49.462616
3735.351562	-49.386395
3736.328125	-48.690445
3737.304688	-49.029171
3738.281250	-49.165024
3739.257812	-48.345036
3740.234375	-49.703823
3741.210938	-50.211937
3742.187500	-49.448345
3743.164062	-48.713417
3744.140625	-48.901325
3745.117188	-48.788330
3746.093750	-47.545040
3747.070312	-47.516838
3748.046875	-48.569023
3749.023438	-47.940315
3750.000000	-48.155346
3750.976562	-49.648869
3751.953125	-47.749981
3752.929688	-46.902180
3753.906250	-47.217155
3754.882812	-47.528339
3755.859375	-47.411015
3756.835938	-47.892284
3757.812500	-48.033592
3758.789062	-47.848686
3759.765625	-46.210796
3760.742188	-47.055260
3761.718750	-46.970066
3762.695312	-47.253868
3763.671875	-45.932304
3764.648438	-46.353111
3765.625000	-47.179474
3766.601562	-46.577030
3767.578125	-46.715309
3768.554688	-46.057831
3769.531250	-46.885872
3770.507812	-46.306263
3771.484375	-45.361965
3772.460938	-44.006844
3773.437500	-44.805946
3774.414062	-46.075886
3775.390625	-46.493038
3776.367188	-45.771957
3777.343750	-44.722393
3778.320312	-44.309364
3779.296875	-43.102032
3780.273438	-45.642277
3781.250000	-44.356892
3782.226562	-44.907803
3783.203125	-43.718124
3784.179688	-43.610222
3785.156250	-43.457851
3786.132812	-42.354225
3787.109375	-43.816029
3788.085938	-44.718449
3789.062500	-44.835590
3790.039062	-43.222630
3791.015625	-42.767967
3791.992188	-42.758621
3792.968750	-42.683487
3793.945312	-43.366413
3794.921875	-43.085014
3795.898438	-43.147179
3796.875000	-42.387775
3797.851562	-42.238632
3798.828125	-41.310585
3799.804688	-42.900948
3800.781250	-42.857288
3801.757812	-41.529697
3802.734375	-41.122536
3803.710938	-41.072498
3804.687500	-42.209213
3805.664062	-42.128002
3806.640625	-40.167831
3807.617188	-42.459621
3808.593750	-41.930920
3809.570312	-41.222485
3810.546875	-41.750740
3811.523438	-41.718513
3812.500000	-41.802559
3813.476562	-40.458172
3814.453125	-39.890972
3815.429688	-40.550209
3816.406250	-40.369427
3817.382812	-40.921387
3818.359375	-41.353348
3819.335938	-40.816189
3820.312500	-40.427242
3821.289062	-42.292603
3822.265625	-42.237568
3823.242188	-40.925503
3824.218750	-40.803028
3825.195312	-41.097919
3826.171875	-40.538631
3827.148438	-41.171852
3828.125000	-41.607456
3829.101562	-40.928829
3830.078125	-41.672894
3831.054688	-40.512226
3832.031250	-41.639015
3833.007812	-42.401443
3833.984375	-41.736446
3834.960938	-41.220135
3835.937500	-41.200882
3836.914062	-41.778053
3837.890625	-43.396732
3838.867188	-42.442490
3839.843750	-41.183914
3840.820312	-43.271515
3841.796875	-43.107632
3842.773438	-43.602940
3843.750000	-43.748669
3844.726562	-43.274937
3845.703125	-41.477886
3846.679688	-44.154667
3847.656250	-42.803898
3848.632812	-42.416744
3849.609375	-43.686043
3850.585938	-44.030102
3851.562500	-44.022533
3852.539062	-43.832527
3853.515625	-43.341419
3854.492188	-43.528309
3855.468750	-44.492420
3856.445312	-44.220741
3857.421875	-44.236988
3858.398438	-46.206581
3859.375000	-45.931934
3860.351562	-45.510147
3861.328125	-46.137249
3862.304688	-44.762501
3863.281250	-45.040054
3864.257812	-46.006550
3865.234375	-46.191193
3866.210938	-46.641079
3867.187500	-45.177509
3868.164062	-46.225246
3869.140625	-47.850269
3870.117188	-47.568981
3871.093750	-46.553940
3872.070312	-46.444897
3873.046875	-45.700573
3874.023438	-46.185360
3875.000000	-47.128586
3875.976562	-47.064697
3876.953125	-47.770958
3877.929688	-47.039192
3878.906250	-46.933529
3879.882812	-48.653847
3880.859375	-48.176186
3881.835938	-47.732567
3882.812500	-47.586926
3883.789062	-47.278450
3884.765625	-47.716785
3885.742188	-48.403099
3886.718750	-48.237144
3887.695312	-48.386436
3888.671875	-48.178585
3889.648438	-48.834423
3890.625000	-47.512512
3891.601562	-47.837105
3892.578125	-47.647045
3893.554688	-48.331577
3894.531250	-48.462910
3895.507812	-48.693508
3896.484375	-48.348137
3897.460938	-49.879726
3898.437500	-50.023014
3899.414062	-50.186855
3900.390625	-49.809055
3901.367188	-48.750221
3902.343750	-49.614845
3903.320312	-49.898079
3904.296875	-50.068546
3905.273438	-51.020687
3906.250000	-51.787296
3907.226562	-50.305508
3908.203125	-50.260395
3909.179688	-49.236382
3910.156250	-50.981258
3911.132812	-48.647022
3912.109375	-49.691753
3913.085938	-50.350819
3914.062500	-50.344570
3915.039062	-49.765236
3916.015625	-49.770535
3916.992188	-51.135040
3917.968750	-50.239708
3918.945312	-49.933151
3919.921875	-51.533203
3920.898438	-51.836990
3921.875000	-50.615604
3922.851562	-51.428528
3923.828125	-51.320858
3924.804688	-51.040985
3925.781250	-50.496357
3926.757812	-51.758068
3927.734375	-50.840919
3928.710938	-51.690170
3929.687500	-51.269604
3930.664062	-52.106384
3931.640625	-49.916569
3932.617188	-51.321129
3933.593750	-50.856991
3934.570312	-52.191933
3935.546875	-52.266888
3936.523438	-50.857296
3937.500000	-50.404705
3938.476562	-50.889629
3939.453125	-52.022148
3940.429688	-52.560715
3941.406250	-52.296162
3942.382812	-52.045013
3943.359375	-52.327431
3944.335938	-51.069981
3945.312500	-51.980450
3946.289062	-54.092968
3947.265625	-53.638878
3948.242188	-53.232773
3949.218750	-51.655754
3950.195312	-52.613155
3951.171875	-51.359474
3952.148438	-53.031876
3953.125000	-52.469524
3954.101562	-52.526779
3955.078125	-53.376984
3956.054688	-52.300392
3957.031250	-53.640564
3958.007812	-52.183506
3958.984375	-53.440746
3959.960938	-52.847836
3960.937500	-54.592957
3961.914062	-53.011921
3962.890625	-53.166206
3963.867188	-54.754704
3964.843750	-55.127468
3965.820312	-53.108952
3966.796875	-53.696213
3967.773438	-54.145821
3968.750000	-53.876560
3969.726562	-54.064503
3970.703125	-53.505642
3971.679688	-53.949165
3972.656250	-54.210857
3973.632812	-52.644985
3974.609375	-53.790924
3975.585938	-54.023872
3976.562500	-53.631641
3977.539062	-54.245060
3978.515625	-54.244804
3979.492188	-54.128780
3980.468750	-53.852123
3981.445312	-52.854900
3982.421875	-53.336079
3983.398438	-54.105724
3984.375000	-55.088058
3985.351562	-55.210068
3986.328125	-53.591042
3987.304688	-54.213375
3988.281250	-53.829193
3989.257812	-53.732498
3990.234375	-54.003582
3991.210938	-54.253922
3992.187500	-55.369892
3993.164062	-54.499500
3994.140625	-53.878391
3995.117188	-54.635357
3996.093750	-54.868183
3997.070312	-54.768555
3998.046875	-53.659122
3999.023438	-54.696678
4000.000000	-55.676731
4000.976562	-54.765541
4001.953125	-54.774914
4002.929688	-54.069534
4003.906250	-54.879189
4004.882812	-54.792496
4005.859375	-54.056709
4006.835938	-54.323116
4007.812500	-53.828228
4008.789062	-55.247871
4009.765625	-54.715092
4010.742188	-54.966667
4011.718750	-56.195724
4012.695312	-55.654579
4013.671875	-54.587059
4014.648438	-54.641315
4015.625000	-54.800831
4016.601562	-54.524971
4017.578125	-54.995224
4018.554688	-56.189217
4019.531250	-55.084999
4020.507812	-54.844471
4021.484375	-54.964241
4022.460938	-55.396042
4023.437500	-54.682552
4024.414062	-54.769348
4025.390625	-55.145454
4026.367188	-55.752430
4027.343750	-55.040806
4028.320312	-55.543877
4029.296875	-55.746864
4030.273438	-54.667858
4031.250000	-53.653492
4032.226562	-55.648636
4033.203125	-55.639767
4034.179688	-56.115162
4035.156250	-55.402935
4036.132812	-54.901958
4037.109375	-55.859303
4038.085938	-55.739883
4039.062500	-54.472523
4040.039062	-55.199432
4041.015625	-56.193150
4041.992188	-55.827969
4042.968750	-55.968487
4043.945312	-55.244987
4044.921875	-55.456120
4045.898438	-54.941357
4046.875000	-55.209423
4047.851562	-56.577564
4048.828125	-54.710060
4049.804688	-55.965748
4050.781250	-56.425911
4051.757812	-56.089447
4052.734375	-55.835094
4053.710938	-55.188984
4054.687500	-56.103230
4055.664062	-55.917931
4056.640625	-56.199333
4057.617188	-55.845875
4058.593750	-55.770226
4059.570312	-55.162903
4060.546875	-55.761204
4061.523438	-56.554390
4062.500000	-56.075100
4063.476562	-56.232445
4064.453125	-55.728268
4065.429688	-56.123966
4066.406250	-54.889458
4067.382812	-55.670208
4068.359375	-55.349522
4069.335938	-54.800591
4070.312500	-55.520058
4071.289062	-55.630630
4072.265625	-54.490723
4073.242188	-55.377392
4074.218750	-56.213951
4075.195312	-56.466751
4076.171875	-55.847038
4077.148438	-55.615250
4078.125000	-57.509254
4079.101562	-54.609852
4080.078125	-56.091602
4081.054688	-55.789536
4082.031250	-56.413284
4083.007812	-55.979450
4083.984375	-55.018795
4084.960938	-56.344482
4085.937500	-56.447346
4086.914062	-56.248127
4087.890625	-57.617844
4088.867188	-55.627640
4089.843750	-55.197163
4090.820312	-56.833328
4091.796875	-56.467525
4092.773438	-57.073185
4093.750000	-55.608425
4094.726562	-56.071426
4095.703125	-56.304565
4096.679688	-56.951385
4097.656250	-56.438011
4098.632812	-55.557785
4099.609375	-55.706089
4100.585938	-57.432549
4101.562500	-57.481979
4102.539062	-56.555660
4103.515625	-55.611771
4104.492188	-57.180828
4105.468750	-55.168293
4106.445312	-55.798550
4107.421875	-55.033768
4108.398438	-55.517776
4109.375000	-55.959904
4110.351562	-56.196266
4111.328125	-56.294132
4112.304688	-55.778614
4113.281250	-56.783878
4114.257812	-55.301399
4115.234375	-56.457222
4116.210938	-56.257210
4117.187500	-57.034184
4118.164062	-54.547527
4119.140625	-56.503170
4120.117188	-55.440147
4121.093750	-56.515812
4122.070312	-55.469494
4123.046875	-55.580364
4124.023438	-56.564888
4125.000000	-55.922756
4125.976562	-56.321434
4126.953125	-56.721115
4127.929688	-56.724716
4128.906250	-56.047646
4129.882812	-55.848061
4130.859375	-56.830322
4131.835938	-55.711731
4132.812500	-55.401806
4133.789062	-55.535603
4134.765625	-56.384636
4135.742188	-55.940536
4136.718750	-55.434742
4137.695312	-55.387310
4138.671875	-56.837242
4139.648438	-56.100975
4140.625000	-55.515587
4141.601562	-55.158550
4142.578125	-55.753475
4143.554688	-56.313969
4144.531250	-55.740459
4145.507812	-54.465904
4146.484375	-54.584625
4147.460938	-55.433048
4148.437500	-57.172607
4149.414062	-56.255932
4150.390625	-55.143383
4151.367188	-55.061356
4152.343750	-55.762390
4153.320312	-55.993317
4154.296875	-54.636940
4155.273438	-54.557568
4156.250000	-54.715088
4157.226562	-54.981781
4158.203125	-56.333466
4159.179688	-55.327099
4160.156250	-54.611271
4161.132812	-55.410267
4162.109375	-56.145771
4163.085938	-55.341793
4164.062500	-55.520962
4165.039062	-54.946003
4166.015625	-54.462845
4166.992188	-54.192490
4167.968750	-55.078938
4168.945312	-55.481739
4169.921875	-55.819340
4170.898438	-55.761051
4171.875000	-56.269939
4172.851562	-54.328773
4173.828125	-55.913498
4174.804688	-55.707542
4175.781250	-53.832623
4176.757812	-54.135563
4177.734375	-55.014935
4178.710938	-55.617207
4179.687500	-55.211826
4180.664062	-55.509922
4181.640625	-54.726780
4182.617188	-55.128700
4183.593750	-54.250530
4184.570312	-54.310238
4185.546875	-55.306763
4186.523438	-56.264183
4187.500000	-54.858547
4188.476562	-54.149994
4189.453125	-56.417694
4190.429688	-56.329655
4191.406250	-53.695164
4192.382812	-52.889751
4193.359375	-53.810013
4194.335938	-54.548523
4195.312500	-54.104782
4196.289062	-55.178932
4197.265625	-53.964821
4198.242188	-54.616959
4199.218750	-53.867996
4200.195312	-53.875423
4201.171875	-55.378986
4202.148438	-53.650757
4203.125000	-53.500168
4204.101562	-54.189732
4205.078125	-53.142059
4206.054688	-54.001350
4207.031250	-54.287399
4208.007812	-53.072426
4208.984375	-54.447517
4209.960938	-53.183319
4210.937500	-54.800953
4211.914062	-55.061577
4212.890625	-53.477322
4213.867188	-54.323307
4214.843750	-55.221935
4215.820312	-53.353889
4216.796875	-53.229721
4217.773438	-53.612499
4218.750000	-52.950108
4219.726562	-53.380196
4220.703125	-54.654804
4221.679688	-52.067070
4222.656250	-53.261864
4223.632812	-52.882244
4224.609375	-53.000004
4225.585938	-53.888798
4226.562500	-52.598488
4227.539062	-52.744751
4228.515625	-52.234116
4229.492188	-53.025524
4230.468750	-53.510021
4231.445312	-53.551437
4232.421875	-53.527096
4233.398438	-52.054886
4234.375000	-51.712299
4235.351562	-52.461876
4236.328125	-52.557556
4237.304688	-52.756382
4238.281250	-52.899181
4239.257812	-53.114777
4240.234375	-51.787792
4241.210938	-52.365971
4242.187500	-51.678570
4243.164062	-51.812218
4244.140625	-51.524933
4245.117188	-51.055824
4246.093750	-51.824787
4247.070312	-52.856750
4248.046875	-53.159992
4249.023438	-52.102043
4250.000000	-52.023849
4250.976562	-50.705101
4251.953125	-51.663891
4252.929688	-51.146683
4253.906250	-51.130268
4254.882812	-51.366631
4255.859375	-51.508003
4256.835938	-51.682144
4257.812500	-51.640301
4258.789062	-50.035736
4259.765625	-49.960957
4260.742188	-50.972866
4261.718750	-50.535030
4262.695312	-50.014034
4263.671875	-51.228336
4264.648438	-50.715504
4265.625000	-50.882309
4266.601562	-50.677460
4267.578125	-51.365654
4268.554688	-52.310356
4269.531250	-49.753117
4270.507812	-50.453133
4271.484375	-50.313953
4272.460938	-49.395069
4273.437500	-50.705971
4274.414062	-50.298035
4275.390625	-50.292362
4276.367188	-49.638733
4277.343750	-49.260151
4278.320312	-50.155884
4279.296875	-50.595592
4280.273438	-49.867023
4281.250000	-49.093742
4282.226562	-50.493484
4283.203125	-49.987938
4284.179688	-49.323799
4285.156250	-49.744438
4286.132812	-49.932148
4287.109375	-48.723755
4288.085938	-48.833214
4289.062500	-48.469864
4290.039062	-48.079750
4291.015625	-49.518932
4291.992188	-48.852570
4292.968750	-48.755959
4293.945312	-47.903511
4294.921875	-47.042709
4295.898438	-48.262001
4296.875000	-47.956287
4297.851562	-47.059116
4298.828125	-48.780079
4299.804688	-48.040028
4300.781250	-47.287476
4301.757812	-45.040367
4302.734375	-46.118065
4303.710938	-48.138660
4304.687500	-46.788097
4305.664062	-47.748013
4306.640625	-47.107635
4307.617188	-47.561375
4308.593750	-47.584972
4309.570312	-46.579624
4310.546875	-47.371365
4311.523438	-46.460651
4312.500000	-47.200241
4313.476562	-46.774139
4314.453125	-46.500999
4315.429688	-45.773090
4316.406250	-45.501068
4317.382812	-44.776302
4318.359375	-45.316166
4319.335938	-45.136246
4320.312500	-45.087776
4321.289062	-45.055649
4322.265625	-46.035137
4323.242188	-45.228725
4324.218750	-46.347809
4325.195312	-44.677349
4326.171875	-44.209934
4327.148438	-43.420212
4328.125000	-44.522949
4329.101562	-43.620369
4330.078125	-43.582260
4331.054688	-44.865154
4332.031250	-43.323658
4333.007812	-43.513374
4333.984375	-43.432003
4334.960938	-44.922550
4335.937500	-42.820641
4336.914062	-42.421627
4337.890625	-42.799698
4338.867188	-43.789291
4339.843750	-43.167019
4340.820312	-44.111439
4341.796875	-43.352291
4342.773438	-43.163651
4343.750000	-43.465977
4344.726562	-42.376236
4345.703125	-44.464787
4346.679688	-44.091457
4347.656250	-42.966572
4348.632812	-41.262089
4349.609375	-41.525082
4350.585938	-42.008297
4351.562500	-42.279202
4352.539062	-43.054005
4353.515625	-42.498150
4354.492188	-41.953434
4355.468750	-42.130749
4356.445312	-43.094543
4357.421875	-43.847477
4358.398438	-42.818352
4359.375000	-42.650314
4360.351562	-41.499794
4361.328125	-42.569748
4362.304688	-42.633522
4363.281250	-41.735260
4364.257812	-41.779053
4365.234375	-41.990211
4366.210938	-42.199299
4367.187500	-42.654079
4368.164062	-43.174065
4369.140625	-42.709450
4370.117188	-42.499130
4371.093750	-42.461735
4372.070312	-43.360291
4373.046875	-43.465946
4374.023438	-43.450378
4375.000000	-42.413460
4375.976562	-42.174519
4376.953125	-43.129745
4377.929688	-43.667221
4378.906250	-44.227280
4379.882812	-43.898396
4380.859375	-43.756413
4381.835938	-44.069687
4382.812500	-44.224579
4383.789062	-44.134918
4384.765625	-44.690674
4385.742188	-46.015644
4386.718750	-45.047836
4387.695312	-43.349876
4388.671875	-45.082008
4389.648438	-44.505733
4390.625000	-44.988564
4391.601562	-44.763275
4392.578125	-45.650658
4393.554688	-45.149170
4394.531250	-44.939571
4395.507812	-44.811478
4396.484375	-46.594223
4397.460938	-45.369297
4398.437500	-46.152496
4399.414062	-45.589298
4400.390625	-46.123356
4401.367188	-47.172157
4402.343750	-47.009129
4403.320312	-46.837124
4404.296875	-47.752403
4405.273438	-47.791248
4406.250000	-45.181911
4407.226562	-47.511482
4408.203125	-46.970165
4409.179688	-45.831936
4410.156250	-46.837879
4411.132812	-47.390335
4412.109375	-49.142235
4413.085938	-48.123341
4414.062500	-48.978340
4415.039062	-48.599285
4416.015625	-47.284950
4416.992188	-48.319405
4417.968750	-47.520840
4418.945312	-47.039513
4419.921875	-47.521366
4420.898438	-48.239292
4421.875000	-47.634335
4422.851562	-49.382710
4423.828125	-48.367558
4424.804688	-47.850449
4425.781250	-49.514267
4426.757812	-50.043545
4427.734375	-47.867588
4428.710938	-49.569992
4429.687500	-48.488758
4430.664062	-49.340004
4431.640625	-50.504833
4432.617188	-50.148331
4433.593750	-49.979454
4434.570312	-48.539024
4435.546875	-49.028015
4436.523438	-49.484684
4437.500000	-49.607784
4438.476562	-49.643158
4439.453125	-51.321751
4440.429688	-51.012760
4441.406250	-50.138634
4442.382812	-50.127281
4443.359375	-52.399227
4444.335938	-50.841900
4445.312500	-49.421066
4446.289062	-49.587833
4447.265625	-50.125626
4448.242188	-51.955212
4449.218750	-50.998421
4450.195312	-51.164139
4451.171875	-50.940014
4452.148438	-51.429680
4453.125000	-50.067326
4454.101562	-52.113472
4455.078125	-51.524975
4456.054688	-51.929760
4457.031250	-51.602352
4458.007812	-52.927990
4458.984375	-50.748280
4459.960938	-51.526997
4460.937500	-52.551281
4461.914062	-51.900017
4462.890625	-52.167896
4463.867188	-52.320442
4464.843750	-51.755394
4465.820312	-51.355206
4466.796875	-50.937515
4467.773438	-52.789146
4468.750000	-51.522938
4469.726562	-51.373875
4470.703125	-52.965702
4471.679688	-52.722435
4472.656250	-52.568668
4473.632812	-52.282837
4474.609375	-53.458733
4475.585938	-53.433258
4476.562500	-52.924782
4477.539062	-53.310612
4478.515625	-52.206253
4479.492188	-53.680241
4480.468750	-53.345718
4481.445312	-54.877129
4482.421875	-52.551537
4483.398438	-53.968376
4484.375000	-53.447418
4485.351562	-52.830994
4486.328125	-52.635300
4487.304688	-54.293736
4488.281250	-52.898129
4489.257812	-52.176704
4490.234375	-53.834290
4491.210938	-52.272564
4492.187500	-54.074654
4493.164062	-52.990612
4494.140625	-54.919018
4495.117188	-52.875957
4496.093750	-54.750587
4497.070312	-52.416950
4498.046875	-53.342205
4499.023438	-53.485294
4500.000000	-54.284142
4500.976562	-54.574982
4501.953125	-55.008850
4502.929688	-53.523445
4503.906250	-53.543320
4504.882812	-53.476738
4505.859375	-54.523640
4506.835938	-54.158337
4507.812500	-54.089912
4508.789062	-54.477924
4509.765625	-53.321720
4510.742188	-52.223701
4511.718750	-54.183121
4512.695312	-54.486828
4513.671875	-53.894138
4514.648438	-54.893150
4515.625000	-54.534702
4516.601562	-55.900433
4517.578125	-55.178078
4518.554688	-55.080441
4519.531250	-54.632347
4520.507812	-55.387707
4521.484375	-55.778515
4522.460938	-54.803883
4523.437500	-54.203625
4524.414062	-55.199524
4525.390625	-55.189281
4526.367188	-54.761734
4527.343750	-55.582371
4528.320312	-55.116116
4529.296875	-54.295048
4530.273438	-55.251617
4531.250000	-54.340343
4532.226562	-55.036304
4533.203125	-54.851345
4534.179688	-54.578075
4535.156250	-54.483871
4536.132812	-54.517292
4537.109375	-55.475925
4538.085938	-54.977921
4539.062500	-54.428425
4540.039062	-53.835579
4541.015625	-55.067738
4541.992188	-54.870014
4542.968750	-54.335251
4543.945312	-54.621315
4544.921875	-56.322407
4545.898438	-54.841198
4546.875000	-55.317608
4547.851562	-55.384136
4548.828125	-55.353432
4549.804688	-55.783543
4550.781250	-54.622231
4551.757812	-56.720314
4552.734375	-55.238796
4553.710938	-55.018932
4554.687500	-55.259655
4555.664062	-54.420826
4556.640625	-54.576618
4557.617188	-55.907909
4558.593750	-54.935925
4559.570312	-55.998924
4560.546875	-55.040035
4561.523438	-55.305241
4562.500000	-55.380302
4563.476562	-55.561932
4564.453125	-55.794277
4565.429688	-56.415577
4566.406250	-56.057053
4567.382812	-54.675465
4568.359375	-56.428211
4569.335938	-55.596981
4570.312500	-53.903870
4571.289062	-55.529526
4572.265625	-55.504230
4573.242188	-55.944481
4574.218750	-55.690010
4575.195312	-55.766014
4576.171875	-55.347607
4577.148438	-56.552219
4578.125000	-57.444759
4579.101562	-56.295033
4580.078125	-55.466980
4581.054688	-55.499165
4582.031250	-57.070808
4583.007812	-56.641190
4583.984375	-55.525711
4584.960938	-56.096539
4585.937500	-55.080219
4586.914062	-56.847160
4587.890625	-55.801254
4588.867188	-56.395473
4589.843750	-56.132854
4590.820312	-57.404606
4591.796875	-54.280136
4592.773438	-55.344528
4593.750000	-56.893814
4594.726562	-55.120651
4595.703125	-54.981773
4596.679688	-55.739666
4597.656250	-55.789627
4598.632812	-55.484573
4599.609375	-56.081348
4600.585938	-56.158287
4601.562500	-55.408192
4602.539062	-57.123772
4603.515625	-56.355659
4604.492188	-56.580334
4605.468750	-56.195583
4606.445312	-55.794353
4607.421875	-56.983101
4608.398438	-55.973457
4609.375000	-55.482834
4610.351562	-55.523533
4611.328125	-57.267570
4612.304688	-56.471149
4613.281250	-55.520924
4614.257812	-55.237778
4615.234375	-55.627213
4616.210938	-56.510296
4617.187500	-57.015739
4618.164062	-55.920284
4619.140625	-55.776512
4620.117188	-55.301014
4621.093750	-55.483311
4622.070312	-56.069813
4623.046875	-55.096786
4624.023438	-55.849838
4625.000000	-56.304043
4625.976562	-56.752464
4626.953125	-56.193748
4627.929688	-55.734310
4628.906250	-54.586372
4629.882812	-55.936756
4630.859375	-56.428566
4631.835938	-56.444328
4632.812500	-56.491100
4633.789062	-56.656433
4634.765625	-55.892799
4635.742188	-56.268211
4636.718750	-56.522831
4637.695312	-56.101131
4638.671875	-55.812176
4639.648438	-55.681675
4640.625000	-55.891876
4641.601562	-57.283573
4642.578125	-55.232445
4643.554688	-54.828621
4644.531250	-55.858768
4645.507812	-55.298382
4646.484375	-55.893539
4647.460938	-56.211617
4648.437500	-55.890446
4649.414062	-55.085018
4650.390625	-54.699604
4651.367188	-55.293640
4652.343750	-55.857758
4653.320312	-54.765766
4654.296875	-54.532047
4655.273438	-56.925858
4656.250000	-56.003582
4657.226562	-55.616116
4658.203125	-56.447094
4659.179688	-55.463081
4660.156250	-56.473400
4661.132812	-55.838722
4662.109375	-56.279209
4663.085938	-56.728294
4664.062500	-56.212753
4665.039062	-55.654320
4666.015625	-55.328354
4666.992188	-55.117531
4667.968750	-55.507675
4668.945312	-56.824612
4669.921875	-56.507389
4670.898438	-56.146896
4671.875000	-55.958939
4672.851562	-56.873604
4673.828125	-54.696308
4674.804688	-56.174248
4675.781250	-55.425735
4676.757812	-55.269047
4677.734375	-55.315620
4678.710938	-55.271812
4679.687500	-55.155937
4680.664062	-55.753712
4681.640625	-55.665539
4682.617188	-55.548721
4683.593750	-56.694942
4684.570312	-55.121571
4685.546875	-54.564892
4686.523438	-54.967415
4687.500000	-55.786957
4688.476562	-54.229916
4689.453125	-55.317722
4690.429688	-56.341862
4691.406250	-54.515610
4692.382812	-55.002972
4693.359375	-54.810093
4694.335938	-56.086414
4695.312500	-55.364582
4696.289062	-56.410732
4697.265625	-55.417503
4698.242188	-54.598911
4699.218750	-54.350273
4700.195312	-55.379395
4701.171875	-55.021893
4702.148438	-55.324493
4703.125000	-56.262157
4704.101562	-53.945583
4705.078125	-54.851833
4706.054688	-54.354279
4707.031250	-53.448017
4708.007812	-55.503017
4708.984375	-55.039093
4709.960938	-53.724949
4710.937500	-55.252590
4711.914062	-55.128544
4712.890625	-55.073112
4713.867188	-54.813728
4714.843750	-53.708370
4715.820312	-53.939697
4716.796875	-53.329845
4717.773438	-53.530254
4718.750000	-55.269432
4719.726562	-56.553345
4720.703125	-55.910786
4721.679688	-54.390362
4722.656250	-56.029770
4723.632812	-54.844143
4724.609375	-54.652554
4725.585938	-53.951202
4726.562500	-54.497131
4727.539062	-54.334793
4728.515625	-53.997002
4729.492188	-55.016212
4730.468750	-55.845963
4731.445312	-53.752914
4732.421875	-53.791927
4733.398438	-53.315125
4734.375000	-53.376942
4735.351562	-54.632584
4736.328125	-53.194023
4737.304688	-53.579151
4738.281250	-52.968544
4739.257812	-53.514828
4740.234375	-53.869209
4741.210938	-53.567551
4742.187500	-53.500038
4743.164062	-53.835571
4744.140625	-54.122318
4745.117188	-54.563980
4746.093750	-52.952396
4747.070312	-53.558708
4748.046875	-52.197479
4749.023438	-52.000652
4750.000000	-52.395657
4750.976562	-53.933342
4751.953125	-52.296967
4752.929688	-52.841774
4753.906250	-53.365990
4754.882812	-53.377449
4755.859375	-54.895252
4756.835938	-52.944096
4757.812500	-53.614243
4758.789062	-53.295067
4759.765625	-53.877083
4760.742188	-53.580086
4761.718750	-53.727356
4762.695312	-52.646126
4763.671875	-53.702232
4764.648438	-53.342197
4765.625000	-52.322544
4766.601562	-51.804104
4767.578125	-51.785965
4768.554688	-52.094116
4769.531250	-51.718197
4770.507812	-52.929516
4771.484375	-52.674229
4772.460938	-51.886360
4773.437500	-52.680527
4774.414062	-52.461517
4775.390625	-52.603867
4776.367188	-51.934635
4777.343750	-50.884026
4778.320312	-51.196568
4779.296875	-49.601681
4780.273438	-50.665981
4781.250000	-52.819004
4782.226562	-52.173450
4783.203125	-52.289768
4784.179688	-52.938087
4785.156250	-51.810028
4786.132812	-52.036980
4787.109375	-51.022629
4788.085938	-52.094868
4789.062500	-51.148788
4790.039062	-52.133759
4791.015625	-51.777309
4791.992188	-51.767315
4792.968750	-51.639191
4793.945312	-49.780048
4794.921875	-49.966946
4795.898438	-50.062290
4796.875000	-50.161240
4797.851562	-50.535469
4798.828125	-49.490631
4799.804688	-50.910553
4800.781250	-49.557228
4801.757812	-50.219128
4802.734375	-50.608418
4803.710938	-50.510033
4804.687500	-49.980042
4805.664062	-50.227211
4806.640625	-49.433025
4807.617188	-48.245686
4808.593750	-49.536522
4809.570312	-49.560123
4810.546875	-49.783035
4811.523438	-49.422119
4812.500000	-49.597595
4813.476562	-48.214397
4814.453125	-49.556263
4815.429688	-49.455254
4816.406250	-50.453621
4817.382812	-48.945107
4818.359375	-49.952515
4819.335938	-48.429306
4820.312500	-48.461094
4821.289062	-48.825081
4822.265625	-48.159843
4823.242188	-49.238743
4824.218750	-48.482449
4825.195312	-48.214493
4826.171875	-47.621494
4827.148438	-48.387280
4828.125000	-49.002281
4829.101562	-47.235687
4830.078125	-48.049580
4831.054688	-48.103054
4832.031250	-47.643177
4833.007812	-47.550041
4833.984375	-47.445938
4834.960938	-47.578674
4835.937500	-46.467026
4836.914062	-46.444782
4837.890625	-47.244083
4838.867188	-46.730907
4839.843750	-46.960304
4840.820312	-47.174431
4841.796875	-45.829636
4842.773438	-47.293392
4843.750000	-47.341442
4844.726562	-47.260654
4845.703125	-47.117985
4846.679688	-47.815464
4847.656250	-44.998611
4848.632812	-44.956516
4849.609375	-45.477726
4850.585938	-45.325291
4851.562500	-45.569824
4852.539062	-45.377583
4853.515625	-45.639427
4854.492188	-44.969975
4855.468750	-44.991814
4856.445312	-43.854042
4857.421875	-44.986687
4858.398438	-44.868622
4859.375000	-42.919605
4860.351562	-44.965157
4861.328125	-43.782455
4862.304688	-45.182560
4863.281250	-45.555717
4864.257812	-44.724178
4865.234375	-43.942822
4866.210938	-45.482132
4867.187500	-45.234211
4868.164062	-44.350414
4869.140625	-43.131886
4870.117188	-44.417580
4871.093750	-43.235226
4872.070312	-43.670708
4873.046875	-43.946266
4874.023438	-43.767742
4875.000000	-44.222252
4875.976562	-44.261517
4876.953125	-43.382980
4877.929688	-42.953667
4878.906250	-41.869617
4879.882812	-43.678761
4880.859375	-43.879601
4881.835938	-43.060863
4882.812500	-44.202290
4883.789062	-43.245476
4884.765625	-42.635658
4885.742188	-43.999077
4886.718750	-43.258022
4887.695312	-42.992931
4888.671875	-43.424149
4889.648438	-42.486134
4890.625000	-43.191574
4891.601562	-43.368771
4892.578125	-42.150993
4893.554688	-43.355171
4894.531250	-44.087009
4895.507812	-44.000134
4896.484375	-43.475574
4897.460938	-43.401459
4898.437500	-43.005463
4899.414062	-43.150856
4900.390625	-43.867493
4901.367188	-43.874210
4902.343750	-42.916534
4903.320312	-42.845810
4904.296875	-43.348015
4905.273438	-43.100262
4906.250000	-43.658195
4907.226562	-43.742588
4908.203125	-44.408993
4909.179688	-43.872608
4910.156250	-43.951126
4911.132812	-43.417900
4912.109375	-44.187481
4913.085938	-43.963604
4914.062500	-43.935978
4915.039062	-44.504890
4916.015625	-44.214687
4916.992188	-44.786983
4917.968750	-44.426926
4918.945312	-44.967453
4919.921875	-44.519596
4920.898438	-45.138741
4921.875000	-45.786221
4922.851562	-45.011524
4923.828125	-45.062805
4924.804688	-45.619385
4925.781250	-45.283306
4926.757812	-45.994244
4927.734375	-44.833527
4928.710938	-45.906204
4929.687500	-45.414146
4930.664062	-45.956646
4931.640625	-45.942730
4932.617188	-46.205536
4933.593750	-45.426842
4934.570312	-45.989136
4935.546875	-46.387871
4936.523438	-47.098614
4937.500000	-46.709873
4938.476562	-46.989815
4939.453125	-46.470695
4940.429688	-46.340225
4941.406250	-46.956963
4942.382812	-46.550934
4943.359375	-47.122421
4944.335938	-47.193504
4945.312500	-47.727055
4946.289062	-46.183670
4947.265625	-46.952332
4948.242188	-47.391048
4949.218750	-47.463749
4950.195312	-47.785545
4951.171875	-47.712986
4952.148438	-47.852753
4953.125000	-47.244255
4954.101562	-47.484215
4955.078125	-48.060623
4956.054688	-48.314812
4957.031250	-47.103886
4958.007812	-47.188148
4958.984375	-47.871590
4959.960938	-48.658699
4960.937500	-48.305088
4961.914062	-49.379467
4962.890625	-48.125618
4963.867188	-49.039024
4964.843750	-48.693233
4965.820312	-49.102962
4966.796875	-48.299072
4967.773438	-48.254585
4968.750000	-49.458858
4969.726562	-50.202435
4970.703125	-48.592079
4971.679688	-51.020554
4972.656250	-48.449078
4973.632812	-49.558647
4974.609375	-49.470848
4975.585938	-48.970425
4976.562500	-50.601387
4977.539062	-50.172272
4978.515625	-49.789120
4979.492188	-49.852325
4980.468750	-49.979038
4981.445312	-50.078102
4982.421875	-49.867126
4983.398438	-50.998894
4984.375000	-50.452354
4985.351562	-49.895344
4986.328125	-49.373901
4987.304688	-49.970119
4988.281250	-49.458618
4989.257812	-49.387562
4990.234375	-49.884529
4991.210938	-49.317364
4992.187500	-50.189838
4993.164062	-51.608742
4994.140625	-51.907127
4995.117188	-51.578793
4996.093750	-51.227150
4997.070312	-51.538532
4998.046875	-49.779613
4999.023438	-50.936829
5000.000000	-50.545132
5000.976562	-51.060852
5001.953125	-50.866333
5002.929688	-50.445614
5003.906250	-51.934246
5004.882812	-51.817959
5005.859375	-52.205246
5006.835938	-51.307922
5007.812500	-51.571865
5008.789062	-51.721790
5009.765625	-52.187317
5010.742188	-50.628986
5011.718750	-51.167740
5012.695312	-51.418476
5013.671875	-51.345650
5014.648438	-52.604500
5015.625000	-51.459862
5016.601562	-51.898418
5017.578125	-52.675587
5018.554688	-51.780960
5019.531250	-51.639053
5020.507812	-51.299858
5021.484375	-52.909424
5022.460938	-52.896015
5023.437500	-53.722019
5024.414062	-51.537464
5025.390625	-52.623356
5026.367188	-53.556690
5027.343750	-52.824371
5028.320312	-51.908215
5029.296875	-52.886917
5030.273438	-53.156590
5031.250000	-53.497402
5032.226562	-53.323296
5033.203125	-51.624588
5034.179688	-51.060440
5035.156250	-51.992798
5036.132812	-53.388840
5037.109375	-51.978058
5038.085938	-53.255245
5039.062500	-52.075550
5040.039062	-52.584866
5041.015625	-51.885239
5041.992188	-52.867111
5042.968750	-52.007473
5043.945312	-52.965912
5044.921875	-52.399727
5045.898438	-52.834839
5046.875000	-52.202774
5047.851562	-52.918510
5048.828125	-52.491520
5049.804688	-53.640862
5050.781250	-52.919041
5051.757812	-52.584236
5052.734375	-52.954948
5053.710938	-52.404213
5054.687500	-52.962852
5055.664062	-53.116302
5056.640625	-52.934689
5057.617188	-53.524139
5058.593750	-52.879532
5059.570312	-53.920094
5060.546875	-52.595947
5061.523438	-52.773270
5062.500000	-54.377113
5063.476562	-54.059429
5064.453125	-53.727680
5065.429688	-53.651173
5066.406250	-52.825638
5067.382812	-53.387562
5068.359375	-54.815308
5069.335938	-54.556515
5070.312500	-52.775299
5071.289062	-53.097374
5072.265625	-53.622314
5073.242188	-54.101124
5074.218750	-53.075447
5075.195312	-54.290699
5076.171875	-53.592983
5077.148438	-54.311726
5078.125000	-54.039772
5079.101562	-54.402184
5080.078125	-52.055897
5081.054688	-54.550468
5082.031250	-53.567955
5083.007812	-54.959026
5083.984375	-53.416916
5084.960938	-53.307808
5085.937500	-54.190224
5086.914062	-52.972912
5087.890625	-53.223274
5088.867188	-53.706059
5089.843750	-54.566547
5090.820312	-53.682209
5091.796875	-53.162689
5092.773438	-53.759953
5093.750000	-54.269531
5094.726562	-54.826271
5095.703125	-54.900970
5096.679688	-53.991806
5097.656250	-55.059853
5098.632812	-54.974037
5099.609375	-53.899010
5100.585938	-53.954910
5101.562500	-54.297691
5102.539062	-53.903755
5103.515625	-53.493042
5104.492188	-53.997696
5105.468750	-54.219086
5106.445312	-54.963902
5107.421875	-55.065575
5108.398438	-54.158470
5109.375000	-53.681988
5110.351562	-53.835400
5111.328125	-52.920753
5112.304688	-53.345894
5113.281250	-54.368069
5114.257812	-54.980633
5115.234375	-53.773697
5116.210938	-54.072781
5117.187500	-53.810783
5118.164062	-54.390270
5119.140625	-55.422344
5120.117188	-54.806011
5121.093750	-54.524662
5122.070312	-54.664837
5123.046875	-54.208073
5124.023438	-54.645153
5125.000000	-53.776413
5125.976562	-54.475460
5126.953125	-54.898716
5127.929688	-54.296490
5128.906250	-54.657928
5129.882812	-54.718681
5130.859375	-54.514263
5131.835938	-54.730270
5132.812500	-54.823605
5133.789062	-53.462471
5134.765625	-55.353085
5135.742188	-54.521011
5136.718750	-53.450527
5137.695312	-54.691654
5138.671875	-53.769165
5139.648438	-55.445026
5140.625000	-53.709976
5141.601562	-53.218166
5142.578125	-54.510983
5143.554688	-55.850712
5144.531250	-54.686619
5145.507812	-53.911324
5146.484375	-54.247177
5147.460938	-53.295101
5148.437500	-53.948288
5149.414062	-54.566044
5150.390625	-53.967823
5151.367188	-54.193916
5152.343750	-55.299847
5153.320312	-54.759903
5154.296875	-53.646095
5155.273438	-53.564148
5156.250000	-52.628872
5157.226562	-54.737690
5158.203125	-55.191387
5159.179688	-54.513733
5160.156250	-54.788788
5161.132812	-54.183384
5162.109375	-53.606361
5163.085938	-52.637543
5164.062500	-52.851074
5165.039062	-53.566715
5166.015625	-53.686111
5166.992188	-52.458744
5167.968750	-53.264671
5168.945312	-53.303452
5169.921875	-54.308155
5170.898438	-54.415611
5171.875000	-53.136051
5172.851562	-53.493778
5173.828125	-54.625343
5174.804688	-53.359905
5175.781250	-54.456852
5176.757812	-55.605858
5177.734375	-55.089912
5178.710938	-52.975906
5179.687500	-54.179932
5180.664062	-53.701260
5181.640625	-53.811668
5182.617188	-55.112957
5183.593750	-54.019249
5184.570312	-53.918079
5185.546875	-53.668690
5186.523438	-53.578285
5187.500000	-53.126816
5188.476562	-54.076191
5189.453125	-52.628933
5190.429688	-54.189720
5191.406250	-53.138737
5192.382812	-52.474575
5193.359375	-54.271137
5194.335938	-53.920883
5195.312500	-53.309937
5196.289062	-53.544884
5197.265625	-54.426998
5198.242188	-54.275074
5199.218750	-51.813770
5200.195312	-52.529507
5201.171875	-53.304703
5202.148438	-52.938297
5203.125000	-53.098179
5204.101562	-54.166992
5205.078125	-53.266102
5206.054688	-53.046070
5207.031250	-52.849903
5208.007812	-52.710854
5208.984375	-52.523109
5209.960938	-53.380089
5210.937500	-52.888748
5211.914062	-53.666946
5212.890625	-53.873344
5213.867188	-53.309158
5214.843750	-53.345394
5215.820312	-52.474201
5216.796875	-53.624966
5217.773438	-54.194569
5218.750000	-52.409611
5219.726562	-53.304436
5220.703125	-53.423668
5221.679688	-51.816574
5222.656250	-52.304726
5223.632812	-53.017162
5224.609375	-51.507595
5225.585938	-52.611515
5226.562500	-54.364712
5227.539062	-51.606140
5228.515625	-51.903156
5229.492188	-53.742607
5230.468750	-52.914715
5231.445312	-52.620655
5232.421875	-52.950844
5233.398438	-52.871552
5234.375000	-52.888191
5235.351562	-51.828384
5236.328125	-50.730556
5237.304688	-51.470837
5238.281250	-53.702194
5239.257812	-52.750610
5240.234375	-52.171280
5241.210938	-53.307152
5242.187500	-51.143726
5243.164062	-52.046261
5244.140625	-52.552742
5245.117188	-53.297279
5246.093750	-52.660648
5247.070312	-52.788132
5248.046875	-52.247540
5249.023438	-53.823147
5250.000000	-51.756073
5250.976562	-52.108730
5251.953125	-53.473457
5252.929688	-52.289120
5253.906250	-52.325775
5254.882812	-51.959579
5255.859375	-51.309334
5256.835938	-51.149578
5257.812500	-51.758072
5258.789062	-51.130939
5259.765625	-51.455021
5260.742188	-51.427048
5261.718750	-51.595352
5262.695312	-51.838928
5263.671875	-51.441181
5264.648438	-52.525574
5265.625000	-52.450996
5266.601562	-50.363617
5267.578125	-49.291626
5268.554688	-52.227184
5269.531250	-52.185009
5270.507812	-50.312618
5271.484375	-50.990570
5272.460938	-50.766335
5273.437500	-52.548077
5274.414062	-51.274929
5275.390625	-50.196907
5276.367188	-51.411858
5277.343750	-51.790333
5278.320312	-51.663502
5279.296875	-51.207794
5280.273438	-51.429150
5281.250000	-50.261738
5282.226562	-50.516609
5283.203125	-50.917137
5284.179688	-50.449448
5285.156250	-50.085621
5286.132812	-50.045628
5287.109375	-50.813404
5288.085938	-49.824520
5289.062500	-50.800785
5290.039062	-49.272514
5291.015625	-49.621307
5291.992188	-49.468452
5292.968750	-49.782364
5293.945312	-50.183262
5294.921875	-50.685993
5295.898438	-49.724064
5296.875000	-49.440189
5297.851562	-49.215298
5298.828125	-50.407604
5299.804688	-49.530163
5300.781250	-50.022896
5301.757812	-50.041595
5302.734375	-48.308117
5303.710938	-49.662498
5304.687500	-49.929535
5305.664062	-49.441467
5306.640625	-48.800602
5307.617188	-48.962296
5308.593750	-49.935505
5309.570312	-48.050003
5310.546875	-48.429920
5311.523438	-48.921768
5312.500000	-49.304367
5313.476562	-49.166409
5314.453125	-50.249062
5315.429688	-49.398968
5316.406250	-48.919384
5317.382812	-49.415085
5318.359375	-49.081223
5319.335938	-48.817673
5320.312500	-48.925816
5321.289062	-46.918617
5322.265625	-48.312904
5323.242188	-49.518684
5324.218750	-48.563347
5325.195312	-47.594406
5326.171875	-46.980743
5327.148438	-48.945652
5328.125000	-48.228565
5329.101562	-47.071304
5330.078125	-49.016380
5331.054688	-49.020760
5332.031250	-47.487869
5333.007812	-48.101177
5333.984375	-49.108047
5334.960938	-47.596371
5335.937500	-47.886856
5336.914062	-46.794899
5337.890625	-48.185402
5338.867188	-47.825367
5339.843750	-47.450169
5340.820312	-46.843128
5341.796875	-47.937092
5342.773438	-47.621792
5343.750000	-46.744881
5344.726562	-48.176941
5345.703125	-47.664471
5346.679688	-48.431057
5347.656250	-48.913345
5348.632812	-46.385014
5349.609375	-47.382328
5350.585938	-45.756924
5351.562500	-46.971645
5352.539062	-47.102890
5353.515625	-45.713505
5354.492188	-46.183010
5355.468750	-46.580170
5356.445312	-46.482662
5357.421875	-47.840527
5358.398438	-45.820152
5359.375000	-46.034119
5360.351562	-45.716179
5361.328125	-45.466152
5362.304688	-46.000122
5363.281250	-45.574078
5364.257812	-45.623966
5365.234375	-45.732868
5366.210938	-45.780136
5367.187500	-45.458710
5368.164062	-46.517918
5369.140625	-45.215187
5370.117188	-44.950745
5371.093750	-44.666916
5372.070312	-45.726860
5373.046875	-46.244957
5374.023438	-46.095551
5375.000000	-45.987389
5375.976562	-45.355843
5376.953125	-44.826107
5377.929688	-44.789783
5378.906250	-45.335075
5379.882812	-44.979012
5380.859375	-44.096050
5381.835938	-44.608898
5382.812500	-44.488663
5383.789062	-45.304329
5384.765625	-44.504490
5385.742188	-44.893333
5386.718750	-44.898468
5387.695312	-45.617664
5388.671875	-45.074913
5389.648438	-44.367336
5390.625000	-44.877815
5391.601562	-44.307423
5392.578125	-44.468483
5393.554688	-45.402554
5394.531250	-44.872581
5395.507812	-44.358612
5396.484375	-43.966400
5397.460938	-44.557510
5398.437500	-44.970165
5399.414062	-44.918716
5400.390625	-43.660332
5401.367188	-44.743530
5402.343750	-43.953945
5403.320312	-45.163479
5404.296875	-44.114544
5405.273438	-43.622204
5406.250000	-44.164001
5407.226562	-44.734039
5408.203125	-44.938343
5409.179688	-44.608227
5410.156250	-44.003307
5411.132812	-45.108799
5412.109375	-43.535152
5413.085938	-44.519100
5414.062500	-44.152512
5415.039062	-43.759857
5416.015625	-43.480667
5416.992188	-43.907036
5417.968750	-44.964226
5418.945312	-44.550781
5419.921875	-44.445076
5420.898438	-44.421345
5421.875000	-44.389877
5422.851562	-44.430412
5423.828125	-44.626637
5424.804688	-43.896435
5425.781250	-43.981495
5426.757812	-44.221161
5427.734375	-44.809174
5428.710938	-44.811661
5429.687500	-44.938038
5430.664062	-44.993153
5431.640625	-45.327007
5432.617188	-44.678802
5433.593750	-45.113087
5434.570312	-44.540298
5435.546875	-44.545704
5436.523438	-44.931423
5437.500000	-44.660744
5438.476562	-45.239731
5439.453125	-45.055466
5440.429688	-43.640804
5441.406250	-44.740307
5442.382812	-44.657097
5443.359375	-45.626404
5444.335938	-44.470688
5445.312500	-44.149094
5446.289062	-45.085815
5447.265625	-45.200562
5448.242188	-45.333324
5449.218750	-45.490887
5450.195312	-44.666950
5451.171875	-46.057198
5452.148438	-45.706318
5453.125000	-44.809799
5454.101562	-48.021049
5455.078125	-46.223335
5456.054688	-46.740906
5457.031250	-45.219727
5458.007812	-44.846481
5458.984375	-46.072964
5459.960938	-45.574146
5460.937500	-46.393551
5461.914062	-46.118462
5462.890625	-44.884602
5463.867188	-45.495941
5464.843750	-46.750847
5465.820312	-45.923733
5466.796875	-45.533588
5467.773438	-46.165611
5468.750000	-45.136932
5469.726562	-46.113392
5470.703125	-46.064800
5471.679688	-47.738739
5472.656250	-45.906677
5473.632812	-45.097710
5474.609375	-46.907345
5475.585938	-46.660347
5476.562500	-46.150730
5477.539062	-46.210804
5478.515625	-45.596130
5479.492188	-46.470161
5480.468750	-47.466652
5481.445312	-45.743362
5482.421875	-46.151043
5483.398438	-47.126572
5484.375000	-46.622456
5485.351562	-45.998024
5486.328125	-46.804966
5487.304688	-47.237526
5488.281250	-47.758450
5489.257812	-47.607914
5490.234375	-47.236816
5491.210938	-46.284447
5492.187500	-46.710640
5493.164062	-46.504379
5494.140625	-46.674759
5495.117188	-47.566784
5496.093750	-47.662350
5497.070312	-47.626694
5498.046875	-46.446266
5499.023438	-46.286755
5500.000000	-47.920773
5500.976562	-47.653408
5501.953125	-46.381138
5502.929688	-47.666382
5503.906250	-48.591053
5504.882812	-48.543999
5505.859375	-47.332916
5506.835938	-47.674583
5507.812500	-48.974266
5508.789062	-48.281395
5509.765625	-47.360607
5510.742188	-47.988934
5511.718750	-47.739170
5512.695312	-47.609272
5513.671875	-48.633568
5514.648438	-48.220188
5515.625000	-47.426643
5516.601562	-46.633335
5517.578125	-49.356159
5518.554688	-47.932877
5519.531250	-47.510529
5520.507812	-48.985493
5521.484375	-47.922928
5522.460938	-48.526138
5523.437500	-47.391998
5524.414062	-47.332512
5525.390625	-48.367649
5526.367188	-47.564121
5527.343750	-47.671120
5528.320312	-48.321621
5529.296875	-47.938065
5530.273438	-48.514626
5531.250000	-49.298481
5532.226562	-49.342426
5533.203125	-50.287853
5534.179688	-48.075981
5535.156250	-48.827866
5536.132812	-48.531765
5537.109375	-49.253433
5538.085938	-48.378502
5539.062500	-48.939423
5540.039062	-47.325874
5541.015625	-48.890362
5541.992188	-48.070892
5542.968750	-49.365299
5543.945312	-48.905334
5544.921875	-49.058662
5545.898438	-49.174484
5546.875000	-50.177139
5547.851562	-49.127247
5548.828125	-48.478176
5549.804688	-49.059811
5550.781250	-48.486778
5551.757812	-49.636871
5552.734375	-49.743351
5553.710938	-48.776249
5554.687500	-47.939304
5555.664062	-49.309151
5556.640625	-48.793339
5557.617188	-48.953663
5558.593750	-48.553482
5559.570312	-50.200600
5560.546875	-49.389580
5561.523438	-49.097069
5562.500000	-49.961670
5563.476562	-50.082493
5564.453125	-49.126499
5565.429688	-49.066235
5566.406250	-49.575478
5567.382812	-48.668236
5568.359375	-49.117207
5569.335938	-49.303486
5570.312500	-51.078377
5571.289062	-50.128616
5572.265625	-49.887260
5573.242188	-48.704609
5574.218750	-49.237209
5575.195312	-48.847496
5576.171875	-50.026035
5577.148438	-50.893112
5578.125000	-50.322701
5579.101562	-49.977093
5580.078125	-49.749027
5581.054688	-49.051250
5582.031250	-49.188679
5583.007812	-49.881836
5583.984375	-49.833496
5584.960938	-49.087673
5585.937500	-49.433960
5586.914062	-49.456547
5587.890625	-50.005817
5588.867188	-49.409290
5589.843750	-50.008747
5590.820312	-48.763367
5591.796875	-50.250530
5592.773438	-49.410305
5593.750000	-49.740993
5594.726562	-49.026081
5595.703125	-49.513767
5596.679688	-50.437046
5597.656250	-50.154701
5598.632812	-50.154186
5599.609375	-49.431736
5600.585938	-49.214985
5601.562500	-48.879932
5602.539062	-50.828953
5603.515625	-51.683022
5604.492188	-50.692863
5605.468750	-48.865669
5606.445312	-50.135056
5607.421875	-50.804844
5608.398438	-48.834850
5609.375000	-49.212452
5610.351562	-49.546017
5611.328125	-49.990879
5612.304688	-50.985168
5613.281250	-49.498226
5614.257812	-48.276386
5615.234375	-48.351749
5616.210938	-49.699818
5617.187500	-50.870628
5618.164062	-50.833527
5619.140625	-50.027264
5620.117188	-49.654842
5621.093750	-49.850471
5622.070312	-50.069145
5623.046875	-49.981758
5624.023438	-48.843182
5625.000000	-51.715172
5625.976562	-49.432640
5626.953125	-49.099106
5627.929688	-51.086788
5628.906250	-49.835545
5629.882812	-49.551952
5630.859375	-50.163738
5631.835938	-50.138256
5632.812500	-51.596523
5633.789062	-50.492130
5634.765625	-49.116249
5635.742188	-50.299179
5636.718750	-50.194370
5637.695312	-51.316311
5638.671875	-50.193783
5639.648438	-49.547890
5640.625000	-49.622749
5641.601562	-48.773869
5642.578125	-49.609043
5643.554688	-50.099789
5644.531250	-49.169601
5645.507812	-49.236958
5646.484375	-49.935036
5647.460938	-50.154854
5648.437500	-49.375175
5649.414062	-50.639626
5650.390625	-50.308784
5651.367188	-49.652649
5652.343750	-49.235107
5653.320312	-49.325523
5654.296875	-49.622261
5655.273438	-49.747898
5656.250000	-49.532925
5657.226562	-48.548897
5658.203125	-49.834839
5659.179688	-49.601791
5660.156250	-49.252522
5661.132812	-50.438194
5662.109375	-51.489365
5663.085938	-50.452209
5664.062500	-50.110081
5665.039062	-50.847759
5666.015625	-49.502659
5666.992188	-49.748848
5667.968750	-49.861004
5668.945312	-49.997837
5669.921875	-49.152157
5670.898438	-49.482468
5671.875000	-51.062611
5672.851562	-50.387379
5673.828125	-50.284657
5674.804688	-50.558372
5675.781250	-50.241161
5676.757812	-49.082584
5677.734375	-50.970936
5678.710938	-49.320908
5679.687500	-49.987656
5680.664062	-50.158554
5681.640625	-50.058540
5682.617188	-49.584160
5683.593750	-49.206608
5684.570312	-49.732048
5685.546875	-48.919327
5686.523438	-50.001579
5687.500000	-49.326633
5688.476562	-50.399361
5689.453125	-49.608238
5690.429688	-48.837105
5691.406250	-49.872772
5692.382812	-49.672153
5693.359375	-50.381336
5694.335938	-49.136326
5695.312500	-49.010735
5696.289062	-49.425056
5697.265625	-49.915886
5698.242188	-51.168350
5699.218750	-48.748974
5700.195312	-48.038567
5701.171875	-49.000751
5702.148438	-50.139179
5703.125000	-49.764915
5704.101562	-48.965328
5705.078125	-50.045132
5706.054688	-51.684578
5707.031250	-50.339775
5708.007812	-48.337383
5708.984375	-49.219139
5709.960938	-49.033760
5710.937500	-48.894543
5711.914062	-50.362278
5712.890625	-48.771343
5713.867188	-49.435341
5714.843750	-48.005104
5715.820312	-48.735493
5716.796875	-48.367439
5717.773438	-50.130268
5718.750000	-49.120773
5719.726562	-49.666370
5720.703125	-50.284763
5721.679688	-47.962769
5722.656250	-50.265938
5723.632812	-48.895664
5724.609375	-48.671417
5725.585938	-47.705383
5726.562500	-49.711506
5727.539062	-49.860012
5728.515625	-49.864838
5729.492188	-48.757011
5730.468750	-49.077675
5731.445312	-48.935383
5732.421875	-49.393879
5733.398438	-48.546856
5734.375000	-49.997044
5735.351562	-50.136517
5736.328125	-48.911972
5737.304688	-49.474232
5738.281250	-49.961895
5739.257812	-49.640858
5740.234375	-48.091927
5741.210938	-48.824646
5742.187500	-50.312523
5743.164062	-48.769775
5744.140625	-47.139404
5745.117188	-49.816402
5746.093750	-48.007057
5747.070312	-49.414242
5748.046875	-48.166370
5749.023438	-48.516998
5750.000000	-48.147255
5750.976562	-48.756458
5751.953125	-49.053452
5752.929688	-48.887775
5753.906250	-50.073746
5754.882812	-48.243034
5755.859375	-48.217335
5756.835938	-47.826496
5757.812500	-49.454750
5758.789062	-49.356277
5759.765625	-48.135178
5760.742188	-49.786995
5761.718750	-48.403130
5762.695312	-48.538128
5763.671875	-48.596413
5764.648438	-48.910084
5765.625000	-48.821949
5766.601562	-50.488911
5767.578125	-48.976696
5768.554688	-48.344688
5769.531250	-48.507618
5770.507812	-48.429672
5771.484375	-51.219585
5772.460938	-49.374851
5773.437500	-49.861187
5774.414062	-48.810295
5775.390625	-49.993382
5776.367188	-48.255123
5777.343750	-49.539078
5778.320312	-49.323311
5779.296875	-48.956036
5780.273438	-49.521263
5781.250000	-49.560093
5782.226562	-48.812061
5783.203125	-47.590313
5784.179688	-47.206139
5785.156250	-48.059692
5786.132812	-47.888428
5787.109375	-48.529045
5788.085938	-49.108143
5789.062500	-48.115513
5790.039062	-48.540920
5791.015625	-48.865593
5791.992188	-48.322136
5792.968750	-48.179420
5793.945312	-48.841927
5794.921875	-48.456825
5795.898438	-49.223984
5796.875000	-48.689552
5797.851562	-48.104275
5798.828125	-49.308804
5799.804688	-49.224075
5800.781250	-47.901016
5801.757812	-48.630871
5802.734375	-48.617138
5803.710938	-48.317604
5804.687500	-49.293026
5805.664062	-49.481483
5806.640625	-48.009926
5807.617188	-49.665314
5808.593750	-47.516834
5809.570312	-48.344303
5810.546875	-49.137497
5811.523438	-48.726746
5812.500000	-48.594612
5813.476562	-48.293625
5814.453125	-48.572151
5815.429688	-48.348663
5816.406250	-49.531422
5817.382812	-47.969166
5818.359375	-48.061405
5819.335938	-47.852398
5820.312500	-47.833828
5821.289062	-50.350906
5822.265625	-50.160435
5823.242188	-48.758846
5824.218750	-47.338085
5825.195312	-49.143852
5826.171875	-48.173943
5827.148438	-48.072628
5828.125000	-48.469673
5829.101562	-48.969471
5830.078125	-47.667500
5831.054688	-46.936020
5832.031250	-48.835201
5833.007812	-48.395359
5833.984375	-48.249733
5834.960938	-50.058464
5835.937500	-49.804325
5836.914062	-48.877357
5837.890625	-48.333202
5838.867188	-47.418118
5839.843750	-47.399246
5840.820312	-48.217880
5841.796875	-48.534294
5842.773438	-48.411022
5843.750000	-47.432327
5844.726562	-46.592419
5845.703125	-49.656918
5846.679688	-47.962051
5847.656250	-48.075062
5848.632812	-48.314091
5849.609375	-48.021576
5850.585938	-48.965446
5851.562500	-49.348888
5852.539062	-48.839836
5853.515625	-48.559196
5854.492188	-46.614315
5855.468750	-48.716011
5856.445312	-48.692513
5857.421875	-49.672733
5858.398438	-48.787621
5859.375000	-49.966427
5860.351562	-47.823120
5861.328125	-48.613972
5862.304688	-48.691879
5863.281250	-47.484581
5864.257812	-49.193928
5865.234375	-47.952057
5866.210938	-48.490917
5867.187500	-48.842491
5868.164062	-47.849365
5869.140625	-49.189102
5870.117188	-47.398396
5871.093750	-49.621593
5872.070312	-48.606716
5873.046875	-49.369915
5874.023438	-49.516376
5875.000000	-48.725082
5875.976562	-48.263863
5876.953125	-49.455719
5877.929688	-47.880199
5878.906250	-48.005508
5879.882812	-48.310658
5880.859375	-48.215069
5881.835938	-49.220039
5882.812500	-48.155346
5883.789062	-47.998985
5884.765625	-48.478840
5885.742188	-47.777187
5886.718750	-47.931618
5887.695312	-49.098217
5888.671875	-48.369404
5889.648438	-47.006237
5890.625000	-47.963631
5891.601562	-48.689453
5892.578125	-48.299580
5893.554688	-48.591637
5894.531250	-49.363476
5895.507812	-48.127968
5896.484375	-48.364948
5897.460938	-49.206619
5898.437500	-49.235668
5899.414062	-47.189983
5900.390625	-49.528576
5901.367188	-48.027176
5902.343750	-49.780201
5903.320312	-49.342442
5904.296875	-47.841030
5905.273438	-47.860947
5906.250000	-48.242771
5907.226562	-48.492085
5908.203125	-48.506645
5909.179688	-48.451374
5910.156250	-48.583485
5911.132812	-49.170795
5912.109375	-47.425289
5913.085938	-48.028488
5914.062500	-48.157612
5915.039062	-50.054974
5916.015625	-48.530354
5916.992188	-47.817230
5917.968750	-47.125824
5918.945312	-48.278419
5919.921875	-46.620857
5920.898438	-47.653706
5921.875000	-48.415833
5922.851562	-48.926811
5923.828125	-48.876587
5924.804688	-48.851784
5925.781250	-48.483990
5926.757812	-48.571217
5927.734375	-49.092930
5928.710938	-48.556919
5929.687500	-49.068970
5930.664062	-49.697956
5931.640625	-48.021358
5932.617188	-47.533081
5933.593750	-48.390312
5934.570312	-48.460056
5935.546875	-47.974499
5936.523438	-48.616219
5937.500000	-47.851456
5938.476562	-47.977173
5939.453125	-47.959820
5940.429688	-46.084576
5941.406250	-47.983810
5942.382812	-48.281635
5943.359375	-48.331913
5944.335938	-46.745033
5945.312500	-47.720314
5946.289062	-48.051804
5947.265625	-47.914791
5948.242188	-48.321102
5949.218750	-47.834019
5950.195312	-48.228878
5951.171875	-47.904617
5952.148438	-47.451637
5953.125000	-48.905445
5954.101562	-48.444042
5955.078125	-47.434566
5956.054688	-46.716831
5957.031250	-47.369762
5958.007812	-48.651257
5958.984375	-48.912960
5959.960938	-46.988194
5960.937500	-47.758682
5961.914062	-47.607708
5962.890625	-47.746212
5963.867188	-48.521339
5964.843750	-49.007252
5965.820312	-48.007614
5966.796875	-46.581306
5967.773438	-47.503857
5968.750000	-49.681080
5969.726562	-47.878822
5970.703125	-48.605015
5971.679688	-47.472740
5972.656250	-48.034027
5973.632812	-48.150684
5974.609375	-47.185665
5975.585938	-48.145100
5976.562500	-48.905323
5977.539062	-47.772709
5978.515625	-48.475964
5979.492188	-48.573845
5980.468750	-49.526894
5981.445312	-47.939072
5982.421875	-47.327274
5983.398438	-47.684944
5984.375000	-47.532116
5985.351562	-47.941654
5986.328125	-47.555920
5987.304688	-48.254715
5988.281250	-47.742832
5989.257812	-48.164410
5990.234375	-48.322296
5991.210938	-48.550434
5992.187500	-47.196262
5993.164062	-47.642239
5994.140625	-47.152817
5995.117188	-49.100040
5996.093750	-48.001377
5997.070312	-47.492493
5998.046875	-48.904297
5999.023438	-49.305107
6000.000000	-48.212147
6000.976562	-48.309261
6001.953125	-47.771927
6002.929688	-46.803307
6003.906250	-48.014244
6004.882812	-48.949997
6005.859375	-49.022850
6006.835938	-46.975700
6007.812500	-48.041496
6008.789062	-47.208500
6009.765625	-47.272507
6010.742188	-48.165100
6011.718750	-48.414349
6012.695312	-46.366863
6013.671875	-49.072678
6014.648438	-48.485153
6015.625000	-46.624302
6016.601562	-47.519634
6017.578125	-48.166183
6018.554688	-47.745640
6019.531250	-46.541901
6020.507812	-48.013927
6021.484375	-46.750149
6022.460938	-47.556183
6023.437500	-48.168091
6024.414062	-47.410194
6025.390625	-48.772079
6026.367188	-47.452995
6027.343750	-48.043041
6028.320312	-47.418152
6029.296875	-47.316490
6030.273438	-47.297047
6031.250000	-47.446442
6032.226562	-47.227062
6033.203125	-48.194111
6034.179688	-47.448711
6035.156250	-47.028923
6036.132812	-47.352692
6037.109375	-48.163845
6038.085938	-47.895275
6039.062500	-47.623634
6040.039062	-47.502510
6041.015625	-47.542450
6041.992188	-46.241203
6042.968750	-46.378323
6043.945312	-46.789024
6044.921875	-46.872044
6045.898438	-47.182903
6046.875000	-47.141792
6047.851562	-47.660007
6048.828125	-47.147285
6049.804688	-47.123299
6050.781250	-46.459763
6051.757812	-47.476234
6052.734375	-47.254147
6053.710938	-47.570286
6054.687500	-47.353130
6055.664062	-46.526432
6056.640625	-47.952393
6057.617188	-47.565548
6058.593750	-46.948608
6059.570312	-47.074940
6060.546875	-46.605217
6061.523438	-45.818474
6062.500000	-46.542171
6063.476562	-47.291119
6064.453125	-46.077827
6065.429688	-46.534142
6066.406250	-46.961334
6067.382812	-47.019238
6068.359375	-47.166615
6069.335938	-47.321693
6070.312500	-46.602997
6071.289062	-47.363998
6072.265625	-47.832340
6073.242188	-47.490265
6074.218750	-46.556442
6075.195312	-48.645409
6076.171875	-47.319397
6077.148438	-47.504074
6078.125000	-47.084614
6079.101562	-46.213413
6080.078125	-47.833149
6081.054688	-46.779671
6082.031250	-47.901363
6083.007812	-46.464935
6083.984375	-46.212650
6084.960938	-46.629143
6085.937500	-48.310448
6086.914062	-46.503036
6087.890625	-46.888374
6088.867188	-47.174187
6089.843750	-46.829498
6090.820312	-48.459484
6091.796875	-47.394047
6092.773438	-47.740482
6093.750000	-47.636417
6094.726562	-47.499084
6095.703125	-47.414749
6096.679688	-46.251640
6097.656250	-47.365593
6098.632812	-47.278057
6099.609375	-48.819702
6100.585938	-48.017071
6101.562500	-48.785904
6102.539062	-47.251808
6103.515625	-47.265491
6104.492188	-46.858643
6105.468750	-48.790550
6106.445312	-48.961380
6107.421875	-46.994934
6108.398438	-46.977581
6109.375000	-48.462242
6110.351562	-48.375877
6111.328125	-46.974220
6112.304688	-47.513683
6113.281250	-48.111343
6114.257812	-48.138428
6115.234375	-48.448658
6116.210938	-47.818680
6117.187500	-46.617413
6118.164062	-47.149799
6119.140625	-47.883282
6120.117188	-47.507328
6121.093750	-48.433510
6122.070312	-46.972462
6123.046875	-47.203945
6124.023438	-47.703014
6125.000000	-48.933804
6125.976562	-48.217701
6126.953125	-48.474308
6127.929688	-48.432446
6128.906250	-48.876656
6129.882812	-47.178955
6130.859375	-47.541412
6131.835938	-47.967110
6132.812500	-48.986382
6133.789062	-48.975746
6134.765625	-49.207561
6135.742188	-49.079239
6136.718750	-48.999214
6137.695312	-48.311535
6138.671875	-49.065693
6139.648438	-48.389446
6140.625000	-49.032021
6141.601562	-50.083950
6142.578125	-49.257580
6143.554688	-48.792309
6144.531250	-48.776508
6145.507812	-48.998360
6146.484375	-48.103699
6147.460938	-49.435371
6148.437500	-49.158085
6149.414062	-48.802658
6150.390625	-48.722202
6151.367188	-48.949921
6152.343750	-49.812313
6153.320312	-49.640778
6154.296875	-50.311802
6155.273438	-49.576241
6156.250000	-50.182526
6157.226562	-50.459324
6158.203125	-49.859165
6159.179688	-50.134445
6160.156250	-50.059948
6161.132812	-49.747463
6162.109375	-49.116299
6163.085938	-49.078674
6164.062500	-50.044151
6165.039062	-50.372456
6166.015625	-49.549740
6166.992188	-49.788982
6167.968750	-48.333473
6168.945312	-49.131683
6169.921875	-50.570671
6170.898438	-51.066746
6171.875000	-50.450802
6172.851562	-50.247444
6173.828125	-49.406120
6174.804688	-49.593498
6175.781250	-50.155769
6176.757812	-49.201225
6177.734375	-49.407215
6178.710938	-50.080639
6179.687500	-50.645576
6180.664062	-51.099762
6181.640625	-50.929512
6182.617188	-50.242477
6183.593750	-51.606934
6184.570312	-51.006123
6185.546875	-49.394844
6186.523438	-51.020683
6187.500000	-50.362663
6188.476562	-51.888210
6189.453125	-50.875912
6190.429688	-51.201035
6191.406250	-49.855629
6192.382812	-52.258018
6193.359375	-49.842270
6194.335938	-50.249012
6195.312500	-50.928970
6196.289062	-50.414299
6197.265625	-52.046978
6198.242188	-51.127911
6199.218750	-51.017044
6200.195312	-50.704567
6201.171875	-51.795853
6202.148438	-51.153889
6203.125000	-51.742584
6204.101562	-50.668968
6205.078125	-51.788120
6206.054688	-52.040115
6207.031250	-51.319756
6208.007812	-52.076283
6208.984375	-51.927341
6209.960938	-51.892727
6210.937500	-52.346668
6211.914062	-52.305111
6212.890625	-51.085266
6213.867188	-52.253860
6214.843750	-51.561806
6215.820312	-51.804920
6216.796875	-52.759041
6217.773438	-53.666557
6218.750000	-52.969875
6219.726562	-53.070709
6220.703125	-51.998924
6221.679688	-51.055866
6222.656250	-52.510807
6223.632812	-53.926300
6224.609375	-53.758587
6225.585938	-52.757702
6226.562500	-52.726219
6227.539062	-52.958080
6228.515625	-52.139168
6229.492188	-52.381870
6230.468750	-52.750484
6231.445312	-52.464733
6232.421875	-53.533131
6233.398438	-52.401382
6234.375000	-52.645344
6235.351562	-52.027206
6236.328125	-52.424923
6237.304688	-53.984177
6238.281250	-53.215378
6239.257812	-51.870983
6240.234375	-52.348633
6241.210938	-52.625851
6242.187500	-52.241047
6243.164062	-54.080959
6244.140625	-52.491474
6245.117188	-53.223015
6246.093750	-53.273251
6247.070312	-53.783241
6248.046875	-52.751060
6249.023438	-53.343460
6250.000000	-53.053474
6250.976562	-54.329086
6251.953125	-55.064152
6252.929688	-55.239071
6253.906250	-52.543537
6254.882812	-53.824551
6255.859375	-53.146099
6256.835938	-53.877010
6257.812500	-54.843067
6258.789062	-53.866631
6259.765625	-54.088860
6260.742188	-52.884575
6261.718750	-53.549824
6262.695312	-53.798328
6263.671875	-53.850880
6264.648438	-53.791725
6265.625000	-54.586880
6266.601562	-53.521297
6267.578125	-53.413406
6268.554688	-53.909500
6269.531250	-54.658039
6270.507812	-54.057106
6271.484375	-53.377777
6272.460938	-54.411381
6273.437500	-53.829159
6274.414062	-53.988762
6275.390625	-53.767082
6276.367188	-53.627285
6277.343750	-54.155495
6278.320312	-53.837086
6279.296875	-54.080269
6280.273438	-54.290855
6281.250000	-54.973679
6282.226562	-55.250626
6283.203125	-54.307285
6284.179688	-54.197060
6285.156250	-54.804943
6286.132812	-55.522423
6287.109375	-55.118809
6288.085938	-54.398632
6289.062500	-54.829788
6290.039062	-54.385284
6291.015625	-55.348824
6291.992188	-54.359238
6292.968750	-55.400272
6293.945312	-54.451408
6294.921875	-55.122856
6295.898438	-55.306648
6296.875000	-54.325508
6297.851562	-52.993252
6298.828125	-54.131763
6299.804688	-55.205116
6300.781250	-54.513832
6301.757812	-54.533585
6302.734375	-55.894154
6303.710938	-54.405838
6304.687500	-54.591343
6305.664062	-54.981018
6306.640625	-55.036976
6307.617188	-54.171394
6308.593750	-57.062614
6309.570312	-55.422249
6310.546875	-55.492294
6311.523438	-55.818836
6312.500000	-54.920448
6313.476562	-55.589935
6314.453125	-56.616253
6315.429688	-57.621536
6316.406250	-55.552872
6317.382812	-56.338036
6318.359375	-56.569042
6319.335938	-57.401592
6320.312500	-57.446644
6321.289062	-56.804150
6322.265625	-56.287769
6323.242188	-55.800934
6324.218750	-56.539276
6325.195312	-55.679253
6326.171875	-57.909565
6327.148438	-57.265251
6328.125000	-56.724567
6329.101562	-55.260929
6330.078125	-56.019814
6331.054688	-55.310871
6332.031250	-55.427322
6333.007812	-54.768528
6333.984375	-55.610104
6334.960938	-55.864952
6335.937500	-55.627243
6336.914062	-55.766109
6337.890625	-55.823372
6338.867188	-54.992462
6339.843750	-54.892109
6340.820312	-55.715427
6341.796875	-55.730263
6342.773438	-55.810387
6343.750000	-57.054356
6344.726562	-56.825207
6345.703125	-56.118782
6346.679688	-55.464394
6347.656250	-56.455898
6348.632812	-55.185104
6349.609375	-56.723812
6350.585938	-56.172535
6351.562500	-57.480659
6352.539062	-57.623196
6353.515625	-57.063999
6354.492188	-56.783726
6355.468750	-56.076488
6356.445312	-57.151039
6357.421875	-56.314316
6358.398438	-55.312511
6359.375000	-56.339359
6360.351562	-55.481125
6361.328125	-56.877892
6362.304688	-55.804970
6363.281250	-55.723305
6364.257812	-57.524323
6365.234375	-56.951134
6366.210938	-56.944683
6367.187500	-57.623001
6368.164062	-57.347641
6369.140625	-57.911602
6370.117188	-57.774204
6371.093750	-56.484936
6372.070312	-56.458847
6373.046875	-58.038227
6374.023438	-58.105637
6375.000000	-56.555901
6375.976562	-56.318310
6376.953125	-55.614429
6377.929688	-56.250404
6378.906250	-55.984131
6379.882812	-57.217384
6380.859375	-56.912216
6381.835938	-56.389149
6382.812500	-56.862522
6383.789062	-57.126450
6384.765625	-57.485931
6385.742188	-56.526852
6386.718750	-57.469452
6387.695312	-57.128296
6388.671875	-55.995392
6389.648438	-57.216736
6390.625000	-58.773514
6391.601562	-56.376297
6392.578125	-57.585316
6393.554688	-57.311565
6394.531250	-57.091702
6395.507812	-58.347878
6396.484375	-55.031021
6397.460938	-58.378635
6398.437500	-56.565739
6399.414062	-56.679813
6400.390625	-56.747585
6401.367188	-56.981186
6402.343750	-56.439686
6403.320312	-56.353340
6404.296875	-57.658966
6405.273438	-56.986526
6406.250000	-57.575520
6407.226562	-57.237682
6408.203125	-57.736015
6409.179688	-58.094715
6410.156250	-57.665607
6411.132812	-58.093868
6412.109375	-56.878399
6413.085938	-55.936058
6414.062500	-56.527359
6415.039062	-56.809502
6416.015625	-56.735306
6416.992188	-58.008320
6417.968750	-56.605759
6418.945312	-57.022041
6419.921875	-56.780006
6420.898438	-56.968990
6421.875000	-57.182652
6422.851562	-57.505383
6423.828125	-57.125675
6424.804688	-57.495289
6425.781250	-57.633957
6426.757812	-57.246284
6427.734375	-56.823437
6428.710938	-56.654903
6429.687500	-57.741207
6430.664062	-56.343082
6431.640625	-56.800625
6432.617188	-56.059711
6433.593750	-58.098392
6434.570312	-56.379070
6435.546875	-57.280788
6436.523438	-57.217175
6437.500000	-55.772228
6438.476562	-56.292095
6439.453125	-56.015457
6440.429688	-56.713604
6441.406250	-56.895634
6442.382812	-56.593971
6443.359375	-55.640129
6444.335938	-56.683777
6445.312500	-56.446411
6446.289062	-57.294434
6447.265625	-56.497169
6448.242188	-56.409515
6449.218750	-58.150398
6450.195312	-58.268024
6451.171875	-57.161201
6452.148438	-57.685909
6453.125000	-57.918991
6454.101562	-56.917877
6455.078125	-57.307171
6456.054688	-57.801884
6457.031250	-57.245754
6458.007812	-56.840565
6458.984375	-54.707241
6459.960938	-58.084454
6460.937500	-56.418896
6461.914062	-57.447330
6462.890625	-56.714188
6463.867188	-57.006863
6464.843750	-56.361866
6465.820312	-55.229465
6466.796875	-55.991199
6467.773438	-56.283390
6468.750000	-55.602695
6469.726562	-55.979050
6470.703125	-55.399990
6471.679688	-55.815086
6472.656250	-56.279171
6473.632812	-56.861694
6474.609375	-56.287853
6475.585938	-56.632782
6476.562500	-56.213989
6477.539062	-57.435253
6478.515625	-56.128872
6479.492188	-55.509464
6480.468750	-55.765102
6481.445312	-55.201260
6482.421875	-55.937275
6483.398438	-56.123528
6484.375000	-56.093651
6485.351562	-57.216026
6486.328125	-55.985317
6487.304688	-56.999611
6488.281250	-55.676456
6489.257812	-55.193985
6490.234375	-55.231201
6491.210938	-56.730778
6492.187500	-55.755230
6493.164062	-56.018742
6494.140625	-55.124916
6495.117188	-55.901787
6496.093750	-57.156097
6497.070312	-55.469582
6498.046875	-55.509342
6499.023438	-54.311188
6500.000000	-56.031445
6500.976562	-54.957279
6501.953125	-56.707569
6502.929688	-56.168491
6503.906250	-55.642349
6504.882812	-56.027836
6505.859375	-56.996780
6506.835938	-55.334873
6507.812500	-55.925419
6508.789062	-55.928616
6509.765625	-55.673286
6510.742188	-55.785645
6511.718750	-54.980049
6512.695312	-54.946003
6513.671875	-56.233315
6514.648438	-55.924625
6515.625000	-55.614254
6516.601562	-56.177429
6517.578125	-55.561489
6518.554688	-55.955631
6519.531250	-57.572029
6520.507812	-55.955692
6521.484375	-54.870926
6522.460938	-54.972496
6523.437500	-54.273582
6524.414062	-54.441250
6525.390625	-55.574348
6526.367188	-56.598053
6527.343750	-54.901360
6528.320312	-55.332039
6529.296875	-54.678970
6530.273438	-56.327850
6531.250000	-54.453857
6532.226562	-55.308758
6533.203125	-55.960613
6534.179688	-54.476978
6535.156250	-55.369160
6536.132812	-57.131832
6537.109375	-55.841553
6538.085938	-53.602386
6539.062500	-55.357079
6540.039062	-54.518101
6541.015625	-55.012966
6541.992188	-55.061714
6542.968750	-56.314537
6543.945312	-56.243389
6544.921875	-55.998859
6545.898438	-55.769417
6546.875000	-54.883694
6547.851562	-54.392540
6548.828125	-54.397339
6549.804688	-54.820774
6550.781250	-54.434803
6551.757812	-55.190369
6552.734375	-54.390812
6553.710938	-55.287502
6554.687500	-54.926201
6555.664062	-55.009495
6556.640625	-55.988148
6557.617188	-55.416332
6558.593750	-54.931149
6559.570312	-55.266747
6560.546875	-54.939552
6561.523438	-54.074947
6562.500000	-54.826992
6563.476562	-54.764759
6564.453125	-55.385948
6565.429688	-55.337658
6566.406250	-53.758232
6567.382812	-54.732426
6568.359375	-53.699364
6569.335938	-55.896431
6570.312500	-54.853508
6571.289062	-53.966339
6572.265625	-53.996471
6573.242188	-55.560390
6574.218750	-54.156525
6575.195312	-55.406349
6576.171875	-54.011452
6577.148438	-54.279900
6578.125000	-55.196220
6579.101562	-54.220448
6580.078125	-54.722950
6581.054688	-54.489796
6582.031250	-54.594730
6583.007812	-55.390038
6583.984375	-54.326649
6584.960938	-54.185303
6585.937500	-53.159214
6586.914062	-54.648762
6587.890625	-54.790890
6588.867188	-54.934334
6589.843750	-53.056351
6590.820312	-54.272995
6591.796875	-54.198578
6592.773438	-53.895367
6593.750000	-53.582829
6594.726562	-54.003670
6595.703125	-52.762787
6596.679688	-53.818516
6597.656250	-54.975735
6598.632812	-54.565929
6599.609375	-54.179764
6600.585938	-54.808754
6601.562500	-54.319839
6602.539062	-55.282131
6603.515625	-53.751472
6604.492188	-55.152878
6605.468750	-53.738354
6606.445312	-54.105049
6607.421875	-54.478302
6608.398438	-54.350185
6609.375000	-54.919472
6610.351562	-54.067532
6611.328125	-54.375591
6612.304688	-55.687756
6613.281250	-53.122021
6614.257812	-54.304836
6615.234375	-54.158249
6616.210938	-53.717564
6617.187500	-55.487511
6618.164062	-55.067024
6619.140625	-55.357784
6620.117188	-54.475330
6621.093750	-53.643707
6622.070312	-55.267708
6623.046875	-54.191368
6624.023438	-55.582703
6625.000000	-54.399406
6625.976562	-54.624989
6626.953125	-55.080292
6627.929688	-55.410770
6628.906250	-54.886734
6629.882812	-55.180790
6630.859375	-54.448124
6631.835938	-55.443123
6632.812500	-54.633064
6633.789062	-55.938736
6634.765625	-54.413441
6635.742188	-55.305016
6636.718750	-55.581776
6637.695312	-54.994629
6638.671875	-55.205532
6639.648438	-55.972454
6640.625000	-55.290787
6641.601562	-55.718628
6642.578125	-56.369164
6643.554688	-56.596306
6644.531250	-54.447048
6645.507812	-56.259872
6646.484375	-54.996170
6647.460938	-55.699268
6648.437500	-55.739456
6649.414062	-55.404533
6650.390625	-54.904213
6651.367188	-55.710629
6652.343750	-55.716259
6653.320312	-55.697926
6654.296875	-55.732208
6655.273438	-57.210709
6656.250000	-56.413036
6657.226562	-57.359478
6658.203125	-55.983711
6659.179688	-56.373028
6660.156250	-58.207985
6661.132812	-56.005630
6662.109375	-57.678410
6663.085938	-58.267384
6664.062500	-57.462074
6665.039062	-57.650002
6666.015625	-58.344070
6666.992188	-57.804569
6667.968750	-57.878372
6668.945312	-58.413845
6669.921875	-57.380352
6670.898438	-57.457188
6671.875000	-58.153931
6672.851562	-59.077415
6673.828125	-58.742355
6674.804688	-58.469994
6675.781250	-58.196632
6676.757812	-57.830849
6677.734375	-57.923698
6678.710938	-57.622288
6679.687500	-58.279049
6680.664062	-57.966000
6681.640625	-58.629383
6682.617188	-57.675243
6683.593750	-58.783871
6684.570312	-59.868507
6685.546875	-59.236923
6686.523438	-58.213280
6687.500000	-58.165703
6688.476562	-57.928799
6689.453125	-58.321083
6690.429688	-59.690205
6691.406250	-59.779579
6692.382812	-58.952152
6693.359375	-58.855911
6694.335938	-59.831593
6695.312500	-59.842720
6696.289062	-58.888878
6697.265625	-58.805828
6698.242188	-60.024532
6699.218750	-59.862907
6700.195312	-59.514664
6701.171875	-59.957146
6702.148438	-59.613014
6703.125000	-60.461632
6704.101562	-59.885853
6705.078125	-59.259315
6706.054688	-60.029541
6707.031250	-60.948555
6708.007812	-59.782639
6708.984375	-60.491604
6709.960938	-59.614223
6710.937500	-60.240437
6711.914062	-60.786690
6712.890625	-60.751675
6713.867188	-61.015442
6714.843750	-60.543880
6715.820312	-60.838203
6716.796875	-60.448547
6717.773438	-61.302700
6718.750000	-61.659721
6719.726562	-61.611881
6720.703125	-61.600666
6721.679688	-60.721516
6722.656250	-61.867664
6723.632812	-61.237259
6724.609375	-60.785240
6725.585938	-62.162331
6726.562500	-62.765030
6727.539062	-59.827522
6728.515625	-61.774475
6729.492188	-62.053841
6730.468750	-62.109612
6731.445312	-62.844986
6732.421875	-61.406506
6733.398438	-62.063160
6734.375000	-62.539944
6735.351562	-62.004833
6736.328125	-62.056484
6737.304688	-61.722149
6738.281250	-62.332916
6739.257812	-61.779419
6740.234375	-63.074001
6741.210938	-62.687595
6742.187500	-62.424824
6743.164062	-62.269203
6744.140625	-62.040691
6745.117188	-62.475006
6746.093750	-62.832352
6747.070312	-62.009182
6748.046875	-64.195816
6749.023438	-63.148346
6750.000000	-62.257317
6750.976562	-61.941833
6751.953125	-63.851959
6752.929688	-62.991390
6753.906250	-64.259758
6754.882812	-63.313732
6755.859375	-62.330498
6756.835938	-63.204597
6757.812500	-64.400230
6758.789062	-63.775490
6759.765625	-63.897648
6760.742188	-63.929359
6761.718750	-63.801937
6762.695312	-63.897999
6763.671875	-64.260475
6764.648438	-64.137474
6765.625000	-63.299931
6766.601562	-62.832218
6767.578125	-63.164673
6768.554688	-63.822250
6769.531250	-63.871185
6770.507812	-64.179985
6771.484375	-64.550232
6772.460938	-65.634201
6773.437500	-64.763481
6774.414062	-64.635788
6775.390625	-64.727509
6776.367188	-65.037689
6777.343750	-64.025459
6778.320312	-65.202423
6779.296875	-64.122536
6780.273438	-65.930611
6781.250000	-65.710899
6782.226562	-65.724876
6783.203125	-65.245544
6784.179688	-65.553467
6785.156250	-64.471092
6786.132812	-64.599876
6787.109375	-66.186440
6788.085938	-64.843048
6789.062500	-65.608482
6790.039062	-64.925079
6791.015625	-64.754150
6791.992188	-65.308792
6792.968750	-66.579552
6793.945312	-65.554131
6794.921875	-66.159882
6795.898438	-64.307831
6796.875000	-64.793854
6797.851562	-64.977043
6798.828125	-65.019135
6799.804688	-66.003220
6800.781250	-65.216003
6801.757812	-66.199989
6802.734375	-65.364075
6803.710938	-64.762268
6804.687500	-66.227013
6805.664062	-65.812706
6806.640625	-64.997459
6807.617188	-67.832497
6808.593750	-66.363655
6809.570312	-65.541946
6810.546875	-65.504959
6811.523438	-67.434296
6812.500000	-65.933052
6813.476562	-65.860329
6814.453125	-66.645935
6815.429688	-67.466927
6816.406250	-65.937248
6817.382812	-66.159157
6818.359375	-66.838730
6819.335938	-66.257248
6820.312500	-66.516464
6821.289062	-66.614479
6822.265625	-66.614189
6823.242188	-66.094788
6824.218750	-67.183479
6825.195312	-66.435539
6826.171875	-66.455002
6827.148438	-66.617416
6828.125000	-67.466309
6829.101562	-66.739830
6830.078125	-67.314072
6831.054688	-66.683022
6832.031250	-66.127304
6833.007812	-67.596756
6833.984375	-66.543983
6834.960938	-67.470291
6835.937500	-66.172859
6836.914062	-67.049782
6837.890625	-68.505692
6838.867188	-67.735191
6839.843750	-68.095764
6840.820312	-68.132874
6841.796875	-66.234161
6842.773438	-67.946083
6843.750000	-67.736443
6844.726562	-68.598671
6845.703125	-68.888382
6846.679688	-67.944496
6847.656250	-68.214973
6848.632812	-67.112373
6849.609375	-67.218964
6850.585938	-67.169861
6851.562500	-67.898399
6852.539062	-68.287849
6853.515625	-68.383461
6854.492188	-68.660919
6855.468750	-68.060646
6856.445312	-67.530594
6857.421875	-67.757576
6858.398438	-69.019241
6859.375000	-67.646904
6860.351562	-67.981430
6861.328125	-66.376213
6862.304688	-69.074501
6863.281250	-68.589699
6864.257812	-67.994385
6865.234375	-68.719139
6866.210938	-68.592476
6867.187500	-68.549408
6868.164062	-68.998421
6869.140625	-68.872581
6870.117188	-69.149002
6871.093750	-69.759544
6872.070312	-69.463570
6873.046875	-68.998543
6874.023438	-67.677589
6875.000000	-68.579727
6875.976562	-70.056938
6876.953125	-70.437592
6877.929688	-68.281067
6878.906250	-67.779793
6879.882812	-68.751060
6880.859375	-68.354904
6881.835938	-67.335403
6882.812500	-68.927437
6883.789062	-68.274673
6884.765625	-68.741920
6885.742188	-68.537643
6886.718750	-69.928703
6887.695312	-69.182663
6888.671875	-68.886124
6889.648438	-68.062553
6890.625000	-70.080704
6891.601562	-69.116768
6892.578125	-69.104843
6893.554688	-69.746773
6894.531250	-69.052536
6895.507812	-69.910271
6896.484375	-69.749802
6897.460938	-69.252556
6898.437500	-69.640457
6899.414062	-68.940491
6900.390625	-69.084114
6901.367188	-68.643021
6902.343750	-68.952164
6903.320312	-69.403435
6904.296875	-68.598557
6905.273438	-69.230507
6906.250000	-69.939568
6907.226562	-70.107849
6908.203125	-68.097260
6909.179688	-69.344749
6910.156250	-69.517799
6911.132812	-68.986732
6912.109375	-69.603180
6913.085938	-70.149429
6914.062500	-70.360497
6915.039062	-69.345169
6916.015625	-69.768379
6916.992188	-69.060600
6917.968750	-69.855011
6918.945312	-69.387909
6919.921875	-69.746109
6920.898438	-69.858482
6921.875000	-69.860329
6922.851562	-69.475334
6923.828125	-70.661301
6924.804688	-69.861603
6925.781250	-69.428062
6926.757812	-70.196854
6927.734375	-68.608246
6928.710938	-70.062035
6929.687500	-71.429413
6930.664062	-70.384331
6931.640625	-69.562897
6932.617188	-69.687263
6933.593750	-70.230568
6934.570312	-70.259781
6935.546875	-70.457924
6936.523438	-71.330688
6937.500000	-70.624214
6938.476562	-70.066170
6939.453125	-70.314201
6940.429688	-69.607857
6941.406250	-70.167969
6942.382812	-71.575493
6943.359375	-69.177734
6944.335938	-70.612297
6945.312500	-70.935974
6946.289062	-70.504448
6947.265625	-71.182945
6948.242188	-70.205750
6949.218750	-71.111855
6950.195312	-70.200142
6951.171875	-69.737122
6952.148438	-71.284126
6953.125000	-71.281219
6954.101562	-70.343506
6955.078125	-70.778542
6956.054688	-70.090088
6957.031250	-69.803116
6958.007812	-70.430504
6958.984375	-70.290009
6959.960938	-70.812271
6960.937500	-70.735779
6961.914062	-71.341232
6962.890625	-70.854889
6963.867188	-71.158600
6964.843750	-71.252159
6965.820312	-71.410660
6966.796875	-69.984467
6967.773438	-70.116158
6968.750000	-70.524803
6969.726562	-70.547600
6970.703125	-70.577629
6971.679688	-71.159172
6972.656250	-70.528709
6973.632812	-71.179779
6974.609375	-70.525154
6975.585938	-70.733543
6976.562500	-71.025780
6977.539062	-70.564903
6978.515625	-71.923424
6979.492188	-70.610992
6980.468750	-70.432945
6981.445312	-71.836533
6982.421875	-70.505821
6983.398438	-71.716522
6984.375000	-70.421196
6985.351562	-71.091095
6986.328125	-71.024498
6987.304688	-70.815460
6988.281250	-70.627434
6989.257812	-70.829498
6990.234375	-70.522964
6991.210938	-70.203850
6992.187500	-70.767548
6993.164062	-71.670067
6994.140625	-70.844612
6995.117188	-69.891739
6996.093750	-71.327881
6997.070312	-70.921768
6998.046875	-71.109604
6999.023438	-70.128700
7000.000000	-70.711647
7000.976562	-70.995636
7001.953125	-71.530388
7002.929688	-70.698326
7003.906250	-70.541138
7004.882812	-70.492874
7005.859375	-70.869858
7006.835938	-71.870628
7007.812500	-71.011047
7008.789062	-71.592636
7009.765625	-71.376793
7010.742188	-70.625854
7011.718750	-70.921051
7012.695312	-71.348518
7013.671875	-71.555870
7014.648438	-69.243431
7015.625000	-70.545891
7016.601562	-71.630035
7017.578125	-71.084007
7018.554688	-71.873779
7019.531250	-70.782974
7020.507812	-71.027626
7021.484375	-71.143089
7022.460938	-71.477356
7023.437500	-70.790932
7024.414062	-70.103516
7025.390625	-71.293945
7026.367188	-70.324806
7027.343750	-71.001717
7028.320312	-70.268677
7029.296875	-70.472588
7030.273438	-71.781647
7031.250000	-71.510475
7032.226562	-70.541229
7033.203125	-71.513832
7034.179688	-70.626488
7035.156250	-70.464912
7036.132812	-72.591019
7037.109375	-71.148773
7038.085938	-71.073341
7039.062500	-70.471153
7040.039062	-70.899887
7041.015625	-71.380692
7041.992188	-70.609253
7042.968750	-70.965019
7043.945312	-70.791031
7044.921875	-72.468788
7045.898438	-69.908096
7046.875000	-70.018700
7047.851562	-72.511826
7048.828125	-71.266159
7049.804688	-70.383209
7050.781250	-70.775162
7051.757812	-71.405006
7052.734375	-70.939003
7053.710938	-70.456261
7054.687500	-70.294609
7055.664062	-69.631996
7056.640625	-70.139641
7057.617188	-70.873283
7058.593750	-71.575882
7059.570312	-70.712395
7060.546875	-70.378113
7061.523438	-70.709747
7062.500000	-70.382416
7063.476562	-70.144539
7064.453125	-71.359161
7065.429688	-71.860481
7066.406250	-69.907990
7067.382812	-70.647217
7068.359375	-70.471375
7069.335938	-71.079247
7070.312500	-69.536705
7071.289062	-70.921204
7072.265625	-70.296356
7073.242188	-69.799576
7074.218750	-69.910103
7075.195312	-71.366257
7076.171875	-69.979126
7077.148438	-70.954430
7078.125000	-71.301941
7079.101562	-70.847694
7080.078125	-70.385498
7081.054688	-71.445259
7082.031250	-71.477844
7083.007812	-71.396622
7083.984375	-70.467926
7084.960938	-71.254646
7085.937500	-69.986328
7086.914062	-70.335152
7087.890625	-70.380814
7088.867188	-69.214256
7089.843750	-70.444626
7090.820312	-70.798294
7091.796875	-69.697563
7092.773438	-69.919853
7093.750000	-70.619904
7094.726562	-69.810066
7095.703125	-70.086273
7096.679688	-70.291252
7097.656250	-69.257652
7098.632812	-69.950722
7099.609375	-68.839729
7100.585938	-69.967804
7101.562500	-69.062805
7102.539062	-70.011375
7103.515625	-70.498154
7104.492188	-70.663689
7105.468750	-70.337646
7106.445312	-70.504066
7107.421875	-70.571136
7108.398438	-70.915428
7109.375000	-70.568604
7110.351562	-70.354050
7111.328125	-70.608818
7112.304688	-69.910713
7113.281250	-70.655266
7114.257812	-69.791489
7115.234375	-70.383842
7116.210938	-70.184280
7117.187500	-71.549423
7118.164062	-68.263779
7119.140625	-69.128242
7120.117188	-71.163063
7121.093750	-69.814697
7122.070312	-70.345840
7123.046875	-70.538162
7124.023438	-70.726448
7125.000000	-68.855164
7125.976562	-70.055397
7126.953125	-69.302315
7127.929688	-69.744240
7128.906250	-70.228592
7129.882812	-70.031288
7130.859375	-69.045761
7131.835938	-69.772797
7132.812500	-70.129982
7133.789062	-70.660362
7134.765625	-70.033936
7135.742188	-70.631477
7136.718750	-69.445099
7137.695312	-69.955185
7138.671875	-70.642395
7139.648438	-70.740532
7140.625000	-69.876358
7141.601562	-70.770271
7142.578125	-71.394257
7143.554688	-69.490181
7144.531250	-68.806519
7145.507812	-70.132324
7146.484375	-70.129990
7147.460938	-69.083061
7148.437500	-70.518311
7149.414062	-70.606628
7150.390625	-69.648392
7151.367188	-70.269051
7152.343750	-68.798950
7153.320312	-69.753899
7154.296875	-70.330719
7155.273438	-70.308907
7156.250000	-71.274147
7157.226562	-70.743149
7158.203125	-70.399651
7159.179688	-71.247826
7160.156250	-70.499924
7161.132812	-70.649582
7162.109375	-71.143120
7163.085938	-70.456108
7164.062500	-70.343048
7165.039062	-70.399063
7166.015625	-69.554848
7166.992188	-71.455986
7167.968750	-70.744347
7168.945312	-70.881401
7169.921875	-71.947655
7170.898438	-71.100639
7171.875000	-71.227737
7172.851562	-71.927673
7173.828125	-71.359901
7174.804688	-71.697563
7175.781250	-71.104782
7176.757812	-71.239197
7177.734375	-72.130394
7178.710938	-71.313240
7179.687500	-71.880424
7180.664062	-72.462593
7181.640625	-71.288399
7182.617188	-71.891113
7183.593750	-71.537056
7184.570312	-72.125717
7185.546875	-71.920219
7186.523438	-72.549553
7187.500000	-71.956406
7188.476562	-71.838593
7189.453125	-72.512291
7190.429688	-71.560936
7191.406250	-72.310814
7192.382812	-73.076797
7193.359375	-71.522346
7194.335938	-72.013870
7195.312500	-72.926208
7196.289062	-73.222229
7197.265625	-73.025322
7198.242188	-73.332123
7199.218750	-74.852936
7200.195312	-73.434196
7201.171875	-73.188332
7202.148438	-73.545441
7203.125000	-73.281281
7204.101562	-74.625694
7205.078125	-74.143501
7206.054688	-74.122040
7207.031250	-74.876373
7208.007812	-74.719788
7208.984375	-75.010506
7209.960938	-74.482475
7210.937500	-75.565239
7211.914062	-75.303650
7212.890625	-74.335342
7213.867188	-74.980759
7214.843750	-74.668396
7215.820312	-74.907806
7216.796875	-75.128952
7217.773438	-76.239357
7218.750000	-74.614525
7219.726562	-75.361137
7220.703125	-75.934692
7221.679688	-75.073723
7222.656250	-75.479630
7223.632812	-76.730713
7224.609375	-75.751984
7225.585938	-76.396698
7226.562500	-78.237068
7227.539062	-76.371231
7228.515625	-77.795029
7229.492188	-76.115173
7230.468750	-77.182129
7231.445312	-77.896179
7232.421875	-77.034225
7233.398438	-76.639351
7234.375000	-76.381744
7235.351562	-76.678955
7236.328125	-76.196815
7237.304688	-77.225883
7238.281250	-76.310806
7239.257812	-77.509697
7240.234375	-77.458351
7241.210938	-77.761993
7242.187500	-78.728462
7243.164062	-77.981758
7244.140625	-78.276352
7245.117188	-78.511238
7246.093750	-78.290337
7247.070312	-77.658554
7248.046875	-78.281914
7249.023438	-78.960793
7250.000000	-78.224968
7250.976562	-78.658585
7251.953125	-78.295273
7252.929688	-78.069077
7253.906250	-77.521919
7254.882812	-78.708359
7255.859375	-80.239441
7256.835938	-78.277962
7257.812500	-78.744629
7258.789062	-78.792732
7259.765625	-79.076912
7260.742188	-80.097015
7261.718750	-79.243713
7262.695312	-79.676582
7263.671875	-78.939789
7264.648438	-80.036186
7265.625000	-78.918320
7266.601562	-79.221245
7267.578125	-80.558594
7268.554688	-79.441696
7269.531250	-80.538200
7270.507812	-81.811470
7271.484375	-79.968384
7272.460938	-79.725441
7273.437500	-80.839767
7274.414062	-81.997078
7275.390625	-80.624077
7276.367188	-80.185875
7277.343750	-80.682098
7278.320312	-81.158958
7279.296875	-81.340736
7280.273438	-81.279427
7281.250000	-80.119057
7282.226562	-81.078072
7283.203125	-82.170334
7284.179688	-82.019615
7285.156250	-81.785645
7286.132812	-82.127258
7287.109375	-81.674294
7288.085938	-81.896469
7289.062500	-81.369095
7290.039062	-81.976723
7291.015625	-82.930237
7291.992188	-81.495094
7292.968750	-82.881355
7293.945312	-83.249725
7294.921875	-82.546524
7295.898438	-83.435463
7296.875000	-83.521805
7297.851562	-82.279465
7298.828125	-82.164902
7299.804688	-82.999886
7300.781250	-81.576523
7301.757812	-81.620316
7302.734375	-82.984718
7303.710938	-83.160446
7304.687500	-81.171707
7305.664062	-83.589516
7306.640625	-84.492874
7307.617188	-82.393112
7308.593750	-82.904373
7309.570312	-84.334045
7310.546875	-82.988716
7311.523438	-83.147224
7312.500000	-82.787636
7313.476562	-82.484344
7314.453125	-83.468536
7315.429688	-83.023178
7316.406250	-82.540260
7317.382812	-83.580574
7318.359375	-83.433243
7319.335938	-83.865143
7320.312500	-84.685204
7321.289062	-83.660011
7322.265625	-82.523354
7323.242188	-84.953926
7324.218750	-84.376968
7325.195312	-84.105515
7326.171875	-83.585503
7327.148438	-83.670662
7328.125000	-84.192924
7329.101562	-86.161407
7330.078125	-84.089676
7331.054688	-84.704590
7332.031250	-84.600060
7333.007812	-85.345200
7333.984375	-85.056061
7334.960938	-83.944893
7335.937500	-85.717987
7336.914062	-84.214615
7337.890625	-83.742920
7338.867188	-83.300072
7339.843750	-84.203407
7340.820312	-85.258072
7341.796875	-84.866814
7342.773438	-85.295860
7343.750000	-84.758995
7344.726562	-85.293427
7345.703125	-85.135773
7346.679688	-85.171707
7347.656250	-85.342628
7348.632812	-85.171593
7349.609375	-84.843376
7350.585938	-86.458267
7351.562500	-84.702446
7352.539062	-85.000679
7353.515625	-85.715782
7354.492188	-86.614777
7355.468750	-84.602707
7356.445312	-85.983963
7357.421875	-84.720848
7358.398438	-85.040794
7359.375000	-86.270042
7360.351562	-85.996140
7361.328125	-88.002991
7362.304688	-85.799301
7363.281250	-86.340279
7364.257812	-86.332016
7365.234375	-86.905136
7366.210938	-86.081482
7367.187500	-86.373985
7368.164062	-86.667404
7369.140625	-87.495621
7370.117188	-85.907974
7371.093750	-86.042534
7372.070312	-86.491516
7373.046875	-85.909485
7374.023438	-86.307579
7375.000000	-86.813377
7375.976562	-86.228180
7376.953125	-85.992500
7377.929688	-85.825836
7378.906250	-86.716698
7379.882812	-86.525787
7380.859375	-86.664017
7381.835938	-86.297142
7382.812500	-87.607025
7383.789062	-86.605904
7384.765625	-87.021690
7385.742188	-86.662209
7386.718750	-87.204308
7387.695312	-87.983070
7388.671875	-86.821136
7389.648438	-88.091125
7390.625000	-87.516273
7391.601562	-87.914894
7392.578125	-87.768433
7393.554688	-87.748009
7394.531250	-88.532883
7395.507812	-87.385719
7396.484375	-88.156540
7397.460938	-88.318230
7398.437500	-86.201904
7399.414062	-87.114510
7400.390625	-87.867020
7401.367188	-88.271729
7402.343750	-87.869278
7403.320312	-87.339378
7404.296875	-87.430756
7405.273438	-87.342300
7406.250000	-88.096153
7407.226562	-87.331566
7408.203125	-86.758102
7409.179688	-88.302162
7410.156250	-87.824150
7411.132812	-87.425659
7412.109375	-87.248085
7413.085938	-88.349739
7414.062500	-88.229088
7415.039062	-88.987953
7416.015625	-88.032928
7416.992188	-88.245201
7417.968750	-87.268806
7418.945312	-88.084068
7419.921875	-87.899460
7420.898438	-89.353401
7421.875000	-88.124893
7422.851562	-88.495041
7423.828125	-88.463615
7424.804688	-87.884186
7425.781250	-88.358917
7426.757812	-88.569695
7427.734375	-88.967979
7428.710938	-88.343964
7429.687500	-88.445877
7430.664062	-88.727654
7431.640625	-88.234108
7432.617188	-89.101723
7433.593750	-88.760178
7434.570312	-88.873566
7435.546875	-88.783600
7436.523438	-88.971016
7437.500000	-88.599922
7438.476562	-88.459969
7439.453125	-88.417191
7440.429688	-88.319435
7441.406250	-88.254196
7442.382812	-88.693123
7443.359375	-88.642334
7444.335938	-89.170753
7445.312500	-88.347839
7446.289062	-88.882713
7447.265625	-88.114937
7448.242188	-88.555611
7449.218750	-88.260002
7450.195312	-88.586777
7451.171875	-89.867432
7452.148438	-89.055977
7453.125000	-89.428314
7454.101562	-88.703468
7455.078125	-89.187927
7456.054688	-88.904564
7457.031250	-89.109978
7458.007812	-89.319092
7458.984375	-89.545769
7459.960938	-88.516197
7460.937500	-88.849693
7461.914062	-88.812325
7462.890625	-88.435112
7463.867188	-88.546783
7464.843750	-89.049202
7465.820312	-88.976059
7466.796875	-89.415695
7467.773438	-90.541893
7468.750000	-89.059402
7469.726562	-89.660133
7470.703125	-89.171371
7471.679688	-89.051971
7472.656250	-88.950172
7473.632812	-89.192596
7474.609375	-89.336205
7475.585938	-89.356606
7476.562500	-89.279488
7477.539062	-89.155144
7478.515625	-89.949738
7479.492188	-89.616249
7480.468750	-89.817924
7481.445312	-89.358604
7482.421875	-88.909340
7483.398438	-90.161980
7484.375000	-89.483330
7485.351562	-89.303223
7486.328125	-89.912987
7487.304688	-89.267944
7488.281250	-89.224083
7489.257812	-89.520798
7490.234375	-89.453110
7491.210938	-89.041519
7492.187500	-90.006737
7493.164062	-89.766129
7494.140625	-90.008667
7495.117188	-89.529907
7496.093750	-89.653389
7497.070312	-89.666435
7498.046875	-90.068382
7499.023438	-89.471642
7500.000000	-89.614120
7500.976562	-90.103119
7501.953125	-90.698807
7502.929688	-89.962654
7503.906250	-89.296371
7504.882812	-89.847061
7505.859375	-90.407967
7506.835938	-89.892174
7507.812500	-90.046738
7508.789062	-89.404167
7509.765625	-90.129379
7510.742188	-89.983025
7511.718750	-89.859505
7512.695312	-89.940773
7513.671875	-89.570930
7514.648438	-90.340210
7515.625000	-89.501251
7516.601562	-90.222603
7517.578125	-89.313896
7518.554688	-89.512833
7519.531250	-89.111053
7520.507812	-89.385315
7521.484375	-90.217041
7522.460938	-90.002419
7523.437500	-89.725655
7524.414062	-89.889862
7525.390625	-90.257774
7526.367188	-89.175934
7527.343750	-90.427437
7528.320312	-90.180679
7529.296875	-90.626648
7530.273438	-89.855972
7531.250000	-90.717331
7532.226562	-90.543144
7533.203125	-89.923523
7534.179688	-90.016235
7535.156250	-89.633743
7536.132812	-90.339340
7537.109375	-90.205124
7538.085938	-90.527267
7539.062500	-90.496605
7540.039062	-90.370750
7541.015625	-89.951805
7541.992188	-90.123177
7542.968750	-90.530525
7543.945312	-90.644661
7544.921875	-89.889290
7545.898438	-89.857262
7546.875000	-90.674217
7547.851562	-89.632545
7548.828125	-90.166084
7549.804688	-90.704201
7550.781250	-89.828926
7551.757812	-89.735657
7552.734375	-90.121315
7553.710938	-90.019203
7554.687500	-90.081879
7555.664062	-90.543007
7556.640625	-90.357132
7557.617188	-90.345490
7558.593750	-90.576096
7559.570312	-91.024048
7560.546875	-90.529716
7561.523438	-90.576851
7562.500000	-90.830894
7563.476562	-90.547760
7564.453125	-90.301170
7565.429688	-90.399841
7566.406250	-90.133789
7567.382812	-90.307915
7568.359375	-90.500046
7569.335938	-90.199928
7570.312500	-91.195534
7571.289062	-90.777420
7572.265625	-90.488663
7573.242188	-90.546021
7574.218750	-90.234734
7575.195312	-90.320290
7576.171875	-90.143867
7577.148438	-90.460724
7578.125000	-90.237808
7579.101562	-90.782822
7580.078125	-90.334755
7581.054688	-90.168259
7582.031250	-90.515076
7583.007812	-90.550591
7583.984375	-90.129402
7584.960938	-90.880890
7585.937500	-90.446770
7586.914062	-90.624557
7587.890625	-90.524277
7588.867188	-90.573174
7589.843750	-90.795059
7590.820312	-90.625008
7591.796875	-90.452301
7592.773438	-90.566467
7593.750000	-90.836319
7594.726562	-90.797447
7595.703125	-90.261925
7596.679688	-90.552223
7597.656250	-90.564407
7598.632812	-90.397049
7599.609375	-90.533577
7600.585938	-90.680878
7601.562500	-90.671478
7602.539062	-90.359589
7603.515625	-90.832069
7604.492188	-90.492447
7605.468750	-90.829933
7606.445312	-90.786797
7607.421875	-90.722610
7608.398438	-90.368172
7609.375000	-90.603905
7610.351562	-90.787476
7611.328125	-90.357979
7612.304688	-90.455505
7613.281250	-90.575989
7614.257812	-91.035728
7615.234375	-90.645050
7616.210938	-90.548500
7617.187500	-90.405212
7618.164062	-90.827263
7619.140625	-90.640984
7620.117188	-90.711067
7621.093750	-90.450104
7622.070312	-90.770195
7623.046875	-90.573975
7624.023438	-90.318970
7625.000000	-90.450401
7625.976562	-90.702324
7626.953125	-90.891159
7627.929688	-90.844238
7628.906250	-90.724075
7629.882812	-90.673897
7630.859375	-90.582031
7631.835938	-90.790718
7632.812500	-90.552498
7633.789062	-90.420288
7634.765625	-90.562782
7635.742188	-90.950272
7636.718750	-90.800865
7637.695312	-90.688332
7638.671875	-90.630409
7639.648438	-90.751266
7640.625000	-90.980881
7641.601562	-90.557747
7642.578125	-91.183868
7643.554688	-90.890709
7644.531250	-90.970512
7645.507812	-90.880150
7646.484375	-90.665680
7647.460938	-90.903915
7648.437500	-90.906509
7649.414062	-90.816566
7650.390625	-90.769936
7651.367188	-90.896729
7652.343750	-90.927383
7653.320312	-90.974480
7654.296875	-90.949814
7655.273438	-90.743851
7656.250000	-90.840820
7657.226562	-90.997650
7658.203125	-90.553169
7659.179688	-90.760010
7660.156250	-90.999184
7661.132812	-90.654442
7662.109375	-91.018089
7663.085938	-90.750282
7664.062500	-90.873352
7665.039062	-90.818840
7666.015625	-90.999413
7666.992188	-90.952408
7667.968750	-90.802727
7668.945312	-91.157234
7669.921875	-90.838478
7670.898438	-90.890442
7671.875000	-90.943924
7672.851562	-90.936028
7673.828125	-90.976341
7674.804688	-90.901146
7675.781250	-90.998665
7676.757812	-91.036560
7677.734375	-90.923279
7678.710938	-90.895119
7679.687500	-91.076721
7680.664062	-91.021996
7681.640625	-90.955963
7682.617188	-91.126297
7683.593750	-90.994537
7684.570312	-90.891830
7685.546875	-90.844475
7686.523438	-90.996094
7687.500000	-91.106567
7688.476562	-90.977524
7689.453125	-91.063461
7690.429688	-90.959427
7691.406250	-91.066643
7692.382812	-90.963860
7693.359375	-90.968452
7694.335938	-91.096901
7695.312500	-91.085960
7696.289062	-90.999657
7697.265625	-91.012161
7698.242188	-91.154663
7699.218750	-91.205467
7700.195312	-90.952209
7701.171875	-91.089989
7702.148438	-91.049202
7703.125000	-91.030182
7704.101562	-90.953064
7705.078125	-91.009674
7706.054688	-91.079971
7707.031250	-90.987732
7708.007812	-91.027702
7708.984375	-91.117561
7709.960938	-91.029251
7710.937500	-91.010559
7711.914062	-91.094765
7712.890625	-91.036636
7713.867188	-91.075737
7714.843750	-90.999809
7715.820312	-90.992409
7716.796875	-91.077805
7717.773438	-91.130028
7718.750000	-91.110382
7719.726562	-91.160706
7720.703125	-91.080925
7721.679688	-91.055855
7722.656250	-91.061417
7723.632812	-91.064552
7724.609375	-91.119492
7725.585938	-91.067970
7726.562500	-91.033592
7727.539062	-91.120613
7728.515625	-91.084465
7729.492188	-91.173615
7730.468750	-91.127510
7731.445312	-91.161880
7732.421875	-91.125908
7733.398438	-91.144798
7734.375000	-91.119316
7735.351562	-91.122253
7736.328125	-91.082436
7737.304688	-91.145027
7738.281250	-91.112000
7739.257812	-91.152473
7740.234375	-91.121651
7741.210938	-91.127029
7742.187500	-91.114555
7743.164062	-91.136703
7744.140625	-91.146690
7745.117188	-91.098083
7746.093750	-91.154907
7747.070312	-91.129028
7748.046875	-91.152153
7749.023438	-91.131882
7750.000000	-91.123123
7750.976562	-91.108910
7751.953125	-91.123039
7752.929688	-91.141129
7753.906250	-91.138161
7754.882812	-91.123535
7755.859375	-91.144455
7756.835938	-91.166161
7757.812500	-91.142059
7758.789062	-91.133720
7759.765625	-91.140297
7760.742188	-91.142242
7761.718750	-91.152130
7762.695312	-91.136757
7763.671875	-91.137772
7764.648438	-91.149261
7765.625000	-91.157173
7766.601562	-91.183754
7767.578125	-91.136200
7768.554688	-91.147598
7769.531250	-91.162209
7770.507812	-91.154533
7771.484375	-91.166069
7772.460938	-91.158554
7773.437500	-91.161636
7774.414062	-91.171265
7775.390625	-91.143929
7776.367188	-91.172493
7777.343750	-91.180481
7778.320312	-91.168587
7779.296875	-91.170700
7780.273438	-91.166222
7781.250000	-91.166550
7782.226562	-91.174492
7783.203125	-91.157692
7784.179688	-91.172531
7785.156250	-91.182472
7786.132812	-91.170052
7787.109375	-91.183472
7788.085938	-91.175652
7789.062500	-91.169922
7790.039062	-91.164040
7791.015625	-91.173828
7791.992188	-91.168991
7792.968750	-91.182434
7793.945312	-91.179970
7794.921875	-91.181892
7795.898438	-91.189590
7796.875000	-91.183624
7797.851562	-91.191071
7798.828125	-91.187042
7799.804688	-91.179001
7800.781250	-91.188484
7801.757812	-91.186699
7802.734375	-91.197800
7803.710938	-91.196999
7804.687500	-91.187134
7805.664062	-91.193985
7806.640625	-91.191071
7807.617188	-91.201424
7808.593750	-91.191795
7809.570312	-91.196365
7810.546875	-91.197769
7811.523438	-91.199432
7812.500000	-91.200798
7813.476562	-91.197289
7814.453125	-91.198303
7815.429688	-91.198151
7816.406250	-91.201012
7817.382812	-91.208488
7818.359375	-91.203957
7819.335938	-91.203690
7820.312500	-91.204590
7821.289062	-91.205536
7822.265625	-91.203896
7823.242188	-91.203003
7824.218750	-91.207695
7825.195312	-91.206520
7826.171875	-91.208504
7827.148438	-91.209351
7828.125000	-91.212387
7829.101562	-91.212212
7830.078125	-91.210449
7831.054688	-91.211983
7832.031250	-91.210541
7833.007812	-91.212326
7833.984375	-91.213501
7834.960938	-91.214142
7835.937500	-91.215187
7836.914062	-91.214828
7837.890625	-91.215759
7838.867188	-91.215347
7839.843750	-91.216553
7840.820312	-91.219353
7841.796875	-91.218430
7842.773438	-91.218971
7843.750000	-91.218224
7844.726562	-91.220398
7845.703125	-91.222412
7846.679688	-91.222946
7847.656250	-91.221535
7848.632812	-91.223907
7849.609375	-91.224327
7850.585938	-91.224434
7851.562500	-91.225243
7852.539062	-91.225555
7853.515625	-91.226097
7854.492188	-91.226440
7855.468750	-91.226311
7856.445312	-91.227432
7857.421875	-91.229530
7858.398438	-91.229454
7859.375000	-91.229156
7860.351562	-91.229866
7861.328125	-91.230988
7862.304688	-91.231567
7863.281250	-91.232132
7864.257812	-91.233078
7865.234375	-91.232887
7866.210938	-91.233513
7867.187500	-91.234253
7868.164062	-91.234261
7869.140625	-91.235664
7870.117188	-91.235168
7871.093750	-91.236237
7872.070312	-91.236465
7873.046875	-91.237633
7874.023438	-91.237320
7875.000000	-91.238525
7875.976562	-91.239006
7876.953125	-91.239586
7877.929688	-91.239975
7878.906250	-91.240341
7879.882812	-91.240829
7880.859375	-91.241394
7881.835938	-91.241859
7882.812500	-91.242348
7883.789062	-91.242798
7884.765625	-91.243332
7885.742188	-91.243576
7886.718750	-91.243958
7887.695312	-91.244606
7888.671875	-91.244965
7889.648438	-91.245483
7890.625000	-91.246170
7891.601562	-91.246101
7892.578125	-91.246635
7893.554688	-91.247063
7894.531250	-91.247673
7895.507812	-91.247955
7896.484375	-91.248390
7897.460938	-91.248917
7898.437500	-91.249298
7899.414062	-91.249763
7900.390625	-91.250130
7901.367188	-91.250519
7902.343750	-91.250916
7903.320312	-91.251328
7904.296875	-91.251640
7905.273438	-91.251961
7906.250000	-91.252426
7907.226562	-91.252762
7908.203125	-91.253189
7909.179688	-91.253502
7910.156250	-91.253868
7911.132812	-91.254333
7912.109375	-91.254639
7913.085938	-91.254967
7914.062500	-91.255318
7915.039062	-91.255745
7916.015625	-91.255959
7916.992188	-91.256378
7917.968750	-91.256660
7918.945312	-91.257004
7919.921875	-91.257324
7920.898438	-91.257668
7921.875000	-91.257927
7922.851562	-91.258263
7923.828125	-91.258614
7924.804688	-91.258888
7925.781250	-91.259178
7926.757812	-91.259491
7927.734375	-91.259781
7928.710938	-91.260071
7929.687500	-91.260353
7930.664062	-91.260612
7931.640625	-91.260918
7932.617188	-91.261192
7933.593750	-91.261459
7934.570312	-91.261719
7935.546875	-91.261955
7936.523438	-91.262215
7937.500000	-91.262489
7938.476562	-91.262726
7939.453125	-91.262985
7940.429688	-91.263237
7941.406250	-91.263458
7942.382812	-91.263680
7943.359375	-91.263931
7944.335938	-91.264137
7945.312500	-91.264366
7946.289062	-91.264603
7947.265625	-91.264793
7948.242188	-91.265022
7949.218750	-91.265244
7950.195312	-91.265427
7951.171875	-91.265610
7952.148438	-91.265816
7953.125000	-91.265999
7954.101562	-91.266190
7955.078125	-91.266350
7956.054688	-91.266533
7957.031250	-91.266716
7958.007812	-91.266891
7958.984375	-91.267075
7959.960938	-91.267227
7960.937500	-91.267372
7961.914062	-91.267509
7962.890625	-91.267677
7963.867188	-91.267822
7964.843750	-91.267975
7965.820312	-91.268112
7966.796875	-91.268257
7967.773438	-91.268372
7968.750000	-91.268494
7969.726562	-91.268639
7970.703125	-91.268768
7971.679688	-91.268867
7972.656250	-91.268997
7973.632812	-91.269073
7974.609375	-91.269196
7975.585938	-91.269287
7976.562500	-91.269379
7977.539062	-91.269478
7978.515625	-91.269554
7979.492188	-91.269630
7980.468750	-91.269730
7981.445312	-91.269814
7982.421875	-91.269882
7983.398438	-91.269958
7984.375000	-91.270020
7985.351562	-91.270081
7986.328125	-91.270142
7987.304688	-91.270210
7988.281250	-91.270218
7989.257812	-91.270279
7990.234375	-91.270317
7991.210938	-91.270370
7992.187500	-91.270378
7993.164062	-91.270424
7994.140625	-91.270447
7995.117188	-91.270454
7996.093750	-91.270485
7997.070312	-91.270500
7998.046875	-91.270508
7999.023438	-91.270531
