Frequency (Hz)	Level (dB)
0.976562	-47.093193
1.953125	-46.064583
2.929688	-46.237373
3.906250	-46.982952
4.882812	-47.369381
5.859375	-46.828503
6.835938	-45.893242
7.812500	-46.472019
8.789062	-46.870289
9.765625	-48.071606
10.742188	-47.758316
11.718750	-47.734894
12.695312	-46.590481
13.671875	-47.747322
14.648438	-47.745056
15.625000	-46.723232
16.601562	-45.793461
17.578125	-46.727158
18.554688	-47.266895
19.531250	-46.386410
20.507812	-46.892269
21.484375	-47.151375
22.460938	-45.416565
23.437500	-47.368465
24.414062	-46.198101
25.390625	-47.178871
26.367188	-46.305191
27.343750	-45.852436
28.320312	-48.326725
29.296875	-46.816586
30.273438	-46.335690
31.250000	-46.472370
32.226562	-48.354523
33.203125	-46.440266
34.179688	-47.229023
35.156250	-46.730202
36.132812	-47.237110
37.109375	-47.591740
38.085938	-48.542950
39.062500	-47.848915
40.039062	-46.988510
41.015625	-47.544609
41.992188	-47.022617
42.968750	-46.050804
43.945312	-47.532192
44.921875	-46.391731
45.898438	-46.389481
46.875000	-47.033543
47.851562	-46.636971
48.828125	-47.363121
49.804688	-47.885509
50.781250	-46.218952
51.757812	-47.771637
52.734375	-47.605648
53.710938	-46.325363
54.687500	-46.595142
55.664062	-48.010780
56.640625	-46.591820
57.617188	-47.073860
58.593750	-47.753860
59.570312	-46.623482
60.546875	-47.570545
61.523438	-48.105515
62.500000	-48.304878
63.476562	-47.286427
64.453125	-47.497532
65.429688	-46.736240
66.406250	-46.126598
67.382812	-46.795261
68.359375	-48.090977
69.335938	-46.114933
70.312500	-47.769657
71.289062	-47.502972
72.265625	-47.652466
73.242188	-46.617134
74.218750	-46.106926
75.195312	-46.535595
76.171875	-47.901543
77.148438	-46.571999
78.125000	-45.162983
79.101562	-47.531586
80.078125	-47.457458
81.054688	-48.250149
82.031250	-47.170837
83.007812	-46.737759
83.984375	-46.527321
84.960938	-46.967228
85.937500	-47.091293
86.914062	-46.171555
87.890625	-46.051338
88.867188	-47.541550
89.843750	-47.778347
90.820312	-48.004448
91.796875	-47.858662
92.773438	-46.828392
93.750000	-47.249615
94.726562	-47.695709
95.703125	-47.048355
96.679688	-45.549103
97.656250	-47.240959
98.632812	-46.870808
99.609375	-47.426502
100.585938	-47.020374
101.562500	-45.989845
102.539062	-45.723194
103.515625	-45.641945
104.492188	-47.175613
105.468750	-46.617458
106.445312	-46.665234
107.421875	-47.873116
108.398438	-47.190689
109.375000	-45.476204
110.351562	-45.783459
111.328125	-47.050770
112.304688	-47.800770
113.281250	-47.041618
114.257812	-47.363968
115.234375	-46.870968
116.210938	-46.489235
117.187500	-46.701889
118.164062	-46.850571
119.140625	-46.398872
120.117188	-46.670841
121.093750	-47.526691
122.070312	-46.680397
123.046875	-46.617985
124.023438	-47.261581
125.000000	-46.768497
125.976562	-47.947304
126.953125	-47.307800
127.929688	-47.795219
128.906250	-46.067860
129.882812	-46.528908
130.859375	-47.327591
131.835938	-47.297882
132.812500	-46.814041
133.789062	-46.260761
134.765625	-47.375023
135.742188	-45.947994
136.718750	-47.523643
137.695312	-47.327393
138.671875	-47.155785
139.648438	-47.216492
140.625000	-45.848457
141.601562	-46.831783
142.578125	-47.107582
143.554688	-47.134079
144.531250	-46.866024
145.507812	-46.701267
146.484375	-46.887089
147.460938	-48.257412
148.437500	-46.818096
149.414062	-45.961052
150.390625	-47.071091
151.367188	-48.881096
152.343750	-47.048786
153.320312	-47.908127
154.296875	-47.175148
155.273438	-46.186081
156.250000	-46.069046
157.226562	-48.748119
158.203125	-47.849316
159.179688	-47.915203
160.156250	-46.414051
161.132812	-48.937099
162.109375	-46.160740
163.085938	-47.644844
164.062500	-46.866943
165.039062	-47.002350
166.015625	-46.166122
166.992188	-45.736958
167.968750	-46.967777
168.945312	-49.083145
169.921875	-46.693645
170.898438	-46.947990
171.875000	-47.792229
172.851562	-46.864449
173.828125	-47.326710
174.804688	-47.676285
175.781250	-47.090260
176.757812	-47.010311
177.734375	-47.214069
178.710938	-47.401180
179.687500	-46.531971
180.664062	-46.642029
181.640625	-48.256145
182.617188	-47.506207
183.593750	-47.550705
184.570312	-46.985180
185.546875	-47.085785
186.523438	-47.888149
187.500000	-48.501610
188.476562	-47.268566
189.453125	-47.400448
190.429688	-47.070023
191.406250	-47.666138
192.382812	-45.706776
193.359375	-47.582066
194.335938	-45.641380
195.312500	-45.630890
196.289062	-48.317223
197.265625	-48.139236
198.242188	-47.469933
199.218750	-47.318867
200.195312	-47.086594
201.171875	-46.273563
202.148438	-45.966866
203.125000	-47.093937
204.101562	-46.915245
205.078125	-47.567604
206.054688	-46.924347
207.031250	-46.774494
208.007812	-47.233994
208.984375	-47.241009
209.960938	-46.752655
210.937500	-46.993969
211.914062	-46.251049
212.890625	-46.547871
213.867188	-45.549694
214.843750	-47.056679
215.820312	-46.344780
216.796875	-46.106728
217.773438	-46.669090
218.750000	-48.196804
219.726562	-47.187965
220.703125	-46.606880
221.679688	-47.244953
222.656250	-47.928936
223.632812	-46.781532
224.609375	-47.001736
225.585938	-47.367290
226.562500	-48.124229
227.539062	-47.402050
228.515625	-48.374416
229.492188	-46.913990
230.468750	-47.318474
231.445312	-47.236546
232.421875	-47.047443
233.398438	-46.271973
234.375000	-46.489910
235.351562	-48.099567
236.328125	-47.911568
237.304688	-47.517776
238.281250	-49.080238
239.257812	-47.819492
240.234375	-47.420338
241.210938	-47.131443
242.187500	-47.122265
243.164062	-48.006981
244.140625	-46.858677
245.117188	-46.845425
246.093750	-47.298096
247.070312	-47.183098
248.046875	-47.695354
249.023438	-47.285416
250.000000	-46.437386
250.976562	-47.857731
251.953125	-47.149860
252.929688	-46.573078
253.906250	-46.075954
254.882812	-45.540066
255.859375	-45.647083
256.835938	-47.719093
257.812500	-46.252937
258.789062	-47.233917
259.765625	-48.565948
260.742188	-47.900600
261.718750	-46.950279
262.695312	-46.645691
263.671875	-47.401062
264.648438	-47.452682
265.625000	-46.281418
266.601562	-46.982109
267.578125	-46.156609
268.554688	-45.549358
269.531250	-47.320549
270.507812	-46.319778
271.484375	-47.627197
272.460938	-46.645901
273.437500	-47.753555
274.414062	-47.490578
275.390625	-46.339420
276.367188	-45.955688
277.343750	-45.828762
278.320312	-47.663048
279.296875	-48.335011
280.273438	-47.698219
281.250000	-47.390205
282.226562	-46.699535
283.203125	-46.603020
284.179688	-47.920795
285.156250	-46.451622
286.132812	-46.211796
287.109375	-47.198872
288.085938	-45.509392
289.062500	-46.497993
290.039062	-46.700283
291.015625	-46.598083
291.992188	-46.487602
292.968750	-46.326889
293.945312	-46.100315
294.921875	-46.810436
295.898438	-47.668385
296.875000	-47.172684
297.851562	-48.115032
298.828125	-47.216145
299.804688	-47.002682
300.781250	-47.983139
301.757812	-47.363453
302.734375	-46.093163
303.710938	-47.164948
304.687500	-47.675480
305.664062	-46.883682
306.640625	-45.962334
307.617188	-47.177135
308.593750	-47.431366
309.570312	-45.661339
310.546875	-47.574490
311.523438	-47.750320
312.500000	-46.291557
313.476562	-47.008656
314.453125	-46.050373
315.429688	-46.392044
316.406250	-46.738605
317.382812	-46.259911
318.359375	-46.314606
319.335938	-47.991634
320.312500	-47.513138
321.289062	-47.599354
322.265625	-47.427185
323.242188	-47.088528
324.218750	-46.597977
325.195312	-47.610832
326.171875	-47.981613
327.148438	-46.810562
328.125000	-47.808064
329.101562	-45.534462
330.078125	-46.573895
331.054688	-46.090683
332.031250	-46.630478
333.007812	-46.701775
333.984375	-46.474155
334.960938	-46.512848
335.937500	-46.963890
336.914062	-46.945282
337.890625	-46.411488
338.867188	-47.298534
339.843750	-47.513134
340.820312	-46.794838
341.796875	-47.590260
342.773438	-46.927185
343.750000	-45.637329
344.726562	-47.033669
345.703125	-46.936466
346.679688	-46.979740
347.656250	-47.004822
348.632812	-46.831165
349.609375	-47.666309
350.585938	-48.226700
351.562500	-45.478817
352.539062	-46.187309
353.515625	-45.866787
354.492188	-45.784874
355.468750	-46.102524
356.445312	-46.931240
357.421875	-47.250278
358.398438	-48.958611
359.375000	-46.625931
360.351562	-46.960697
361.328125	-47.867897
362.304688	-47.153969
363.281250	-46.422550
364.257812	-46.521420
365.234375	-47.650436
366.210938	-48.587494
367.187500	-47.004147
368.164062	-48.032719
369.140625	-46.134880
370.117188	-46.854729
371.093750	-47.195354
372.070312	-47.151909
373.046875	-46.197041
374.023438	-46.562611
375.000000	-46.522854
375.976562	-46.933384
376.953125	-47.243053
377.929688	-47.266151
378.906250	-46.471077
379.882812	-46.605610
380.859375	-47.093376
381.835938	-47.074528
382.812500	-46.396786
383.789062	-47.242516
384.765625	-46.763451
385.742188	-47.485229
386.718750	-46.949459
387.695312	-47.829323
388.671875	-47.343616
389.648438	-45.906654
390.625000	-45.922684
391.601562	-48.093212
392.578125	-48.191689
393.554688	-46.481567
394.531250	-47.917194
395.507812	-47.076374
396.484375	-46.657799
397.460938	-47.652180
398.437500	-47.144646
399.414062	-46.329197
400.390625	-47.476864
401.367188	-47.207981
402.343750	-47.156075
403.320312	-45.678318
404.296875	-45.726276
405.273438	-48.541740
406.250000	-47.851673
407.226562	-46.918888
408.203125	-47.130207
409.179688	-47.366913
410.156250	-48.023048
411.132812	-47.338886
412.109375	-47.222034
413.085938	-46.163895
414.062500	-47.644974
415.039062	-47.452812
416.015625	-46.616837
416.992188	-46.774574
417.968750	-47.911324
418.945312	-46.962543
419.921875	-48.018864
420.898438	-46.324909
421.875000	-46.850990
422.851562	-46.876114
423.828125	-47.375935
424.804688	-45.694645
425.781250	-45.868690
426.757812	-46.974316
427.734375	-47.743610
428.710938	-47.791241
429.687500	-47.397739
430.664062	-46.931953
431.640625	-45.179123
432.617188	-46.940083
433.593750	-47.563953
434.570312	-47.925587
435.546875	-46.924549
436.523438	-47.493382
437.500000	-44.933544
438.476562	-46.638943
439.453125	-46.597519
440.429688	-47.796627
441.406250	-46.807602
442.382812	-46.801323
443.359375	-46.906319
444.335938	-47.019424
445.312500	-47.364609
446.289062	-47.318550
447.265625	-46.072025
448.242188	-47.262428
449.218750	-45.891308
450.195312	-47.720646
451.171875	-46.707298
452.148438	-47.278927
453.125000	-48.122795
454.101562	-47.052883
455.078125	-46.454426
456.054688	-46.839714
457.031250	-47.438519
458.007812	-47.143913
458.984375	-46.974476
459.960938	-46.882030
460.937500	-45.864746
461.914062	-46.885426
462.890625	-46.663689
463.867188	-47.134094
464.843750	-47.114719
465.820312	-46.920856
466.796875	-46.080318
467.773438	-46.856155
468.750000	-46.748253
469.726562	-45.688568
470.703125	-46.030766
471.679688	-47.463696
472.656250	-46.504814
473.632812	-47.200813
474.609375	-47.572392
475.585938	-48.011765
476.562500	-46.900169
477.539062	-47.037075
478.515625	-46.874699
479.492188	-48.059841
480.468750	-46.968063
481.445312	-46.414822
482.421875	-47.701279
483.398438	-46.341572
484.375000	-46.889339
485.351562	-47.084961
486.328125	-47.172531
487.304688	-47.214371
488.281250	-48.207275
489.257812	-45.470711
490.234375	-45.943733
491.210938	-46.897076
492.187500	-48.627563
493.164062	-45.549995
494.140625	-46.963879
495.117188	-47.119488
496.093750	-46.292133
497.070312	-48.051834
498.046875	-47.360538
499.023438	-47.255440
500.000000	-48.202538
500.976562	-46.339104
501.953125	-45.980801
502.929688	-47.655357
503.906250	-47.663956
504.882812	-47.334724
505.859375	-46.871693
506.835938	-46.599857
507.812500	-45.962494
508.789062	-47.920383
509.765625	-47.850765
510.742188	-46.148819
511.718750	-46.998661
512.695312	-46.450184
513.671875	-47.251060
514.648438	-47.171291
515.625000	-46.546703
516.601562	-46.955635
517.578125	-47.829639
518.554688	-46.268826
519.531250	-47.367252
520.507812	-47.464424
521.484375	-47.135937
522.460938	-46.791153
523.437500	-47.096016
524.414062	-47.939968
525.390625	-48.099308
526.367188	-47.422081
527.343750	-47.868599
528.320312	-47.646049
529.296875	-46.886604
530.273438	-47.846840
531.250000	-46.341034
532.226562	-46.105782
533.203125	-46.149532
534.179688	-47.467514
535.156250	-46.970036
536.132812	-46.536819
537.109375	-47.474796
538.085938	-47.548111
539.062500	-46.591702
540.039062	-47.365250
541.015625	-47.489231
541.992188	-46.893169
542.968750	-46.211201
543.945312	-47.206821
544.921875	-47.178307
545.898438	-47.333435
546.875000	-47.496082
547.851562	-46.404072
548.828125	-47.107742
549.804688	-47.598080
550.781250	-46.587696
551.757812	-47.400036
552.734375	-46.697876
553.710938	-46.516098
554.687500	-46.229939
555.664062	-46.617569
556.640625	-46.221935
557.617188	-46.607128
558.593750	-46.849857
559.570312	-46.467037
560.546875	-47.202217
561.523438	-47.278027
562.500000	-47.510250
563.476562	-46.010067
564.453125	-46.390198
565.429688	-47.758263
566.406250	-48.016132
567.382812	-46.753101
568.359375	-46.918789
569.335938	-47.123135
570.312500	-46.253937
571.289062	-47.772942
572.265625	-47.057846
573.242188	-47.084541
574.218750	-48.584808
575.195312	-47.761860
576.171875	-47.212093
577.148438	-46.538208
578.125000	-47.325291
579.101562	-47.926575
580.078125	-47.761574
581.054688	-47.400951
582.031250	-46.738449
583.007812	-46.807579
583.984375	-48.133682
584.960938	-48.070545
585.937500	-47.198154
586.914062	-46.333939
587.890625	-47.405640
588.867188	-46.820946
589.843750	-46.729008
590.820312	-46.462078
591.796875	-47.421425
592.773438	-46.781910
593.750000	-46.760189
594.726562	-47.101627
595.703125	-47.905331
596.679688	-46.881256
597.656250	-46.712166
598.632812	-47.567238
599.609375	-46.349640
600.585938	-47.524464
601.562500	-46.947021
602.539062	-46.992916
603.515625	-47.495487
604.492188	-47.711914
605.468750	-47.220181
606.445312	-47.309162
607.421875	-46.151066
608.398438	-48.552223
609.375000	-47.291714
610.351562	-46.240543
611.328125	-47.810749
612.304688	-46.974483
613.281250	-48.096626
614.257812	-46.978020
615.234375	-46.728973
616.210938	-46.962589
617.187500	-46.918846
618.164062	-46.727390
619.140625	-47.766960
620.117188	-46.919151
621.093750	-46.910423
622.070312	-46.724197
623.046875	-47.354088
624.023438	-47.197163
625.000000	-46.401291
625.976562	-46.959663
626.953125	-46.926170
627.929688	-46.983711
628.906250	-48.015766
629.882812	-47.386379
630.859375	-47.200588
631.835938	-47.547382
632.812500	-46.617588
633.789062	-46.588608
634.765625	-48.086182
635.742188	-46.459648
636.718750	-46.618855
637.695312	-47.247269
638.671875	-46.428741
639.648438	-46.846405
640.625000	-47.201515
641.601562	-47.575588
642.578125	-46.500187
643.554688	-46.397312
644.531250	-46.410305
645.507812	-45.951221
646.484375	-47.793503
647.460938	-47.779095
648.437500	-46.251804
649.414062	-46.789494
650.390625	-47.206909
651.367188	-46.234486
652.343750	-45.704018
653.320312	-46.938332
654.296875	-46.666058
655.273438	-46.710064
656.250000	-47.436214
657.226562	-47.831703
658.203125	-46.857712
659.179688	-47.722317
660.156250	-47.466297
661.132812	-47.679012
662.109375	-47.314823
663.085938	-46.204258
664.062500	-46.510143
665.039062	-46.125019
666.015625	-46.753922
666.992188	-48.013378
667.968750	-47.991001
668.945312	-47.384308
669.921875	-47.564606
670.898438	-47.017509
671.875000	-46.760105
672.851562	-46.294064
673.828125	-47.531933
674.804688	-47.696747
675.781250	-48.588974
676.757812	-46.626938
677.734375	-47.318016
678.710938	-47.569057
679.687500	-48.077515
680.664062	-46.037483
681.640625	-45.968483
682.617188	-46.269112
683.593750	-45.986164
684.570312	-46.825420
685.546875	-46.403500
686.523438	-47.002655
687.500000	-47.573936
688.476562	-47.034565
689.453125	-46.288063
690.429688	-48.185692
691.406250	-47.699108
692.382812	-46.882336
693.359375	-46.906731
694.335938	-47.333195
695.312500	-48.010162
696.289062	-49.053654
697.265625	-46.801685
698.242188	-46.900730
699.218750	-48.106346
700.195312	-47.227512
701.171875	-46.517494
702.148438	-47.133007
703.125000	-46.505371
704.101562	-45.929848
705.078125	-47.076355
706.054688	-46.552025
707.031250	-47.045002
708.007812	-47.514790
708.984375	-47.117874
709.960938	-47.580444
710.937500	-46.309879
711.914062	-46.283916
712.890625	-47.204609
713.867188	-45.893826
714.843750	-47.431625
715.820312	-46.336151
716.796875	-46.889832
717.773438	-46.751575
718.750000	-46.736900
719.726562	-47.616249
720.703125	-47.150600
721.679688	-46.689648
722.656250	-47.207035
723.632812	-47.054333
724.609375	-46.656136
725.585938	-46.013721
726.562500	-46.368702
727.539062	-47.595150
728.515625	-46.899754
729.492188	-47.868877
730.468750	-46.758419
731.445312	-46.433884
732.421875	-47.168812
733.398438	-47.502808
734.375000	-45.977463
735.351562	-47.498566
736.328125	-47.499454
737.304688	-47.377090
738.281250	-46.546135
739.257812	-46.309502
740.234375	-46.503361
741.210938	-47.700737
742.187500	-45.697800
743.164062	-45.720078
744.140625	-47.701546
745.117188	-46.460957
746.093750	-46.360016
747.070312	-46.675880
748.046875	-46.499092
749.023438	-47.502411
750.000000	-47.763950
750.976562	-46.755783
751.953125	-46.282051
752.929688	-47.708580
753.906250	-47.474133
754.882812	-46.669590
755.859375	-46.930584
756.835938	-47.640587
757.812500	-47.199123
758.789062	-46.862137
759.765625	-46.463638
760.742188	-46.860802
761.718750	-47.072586
762.695312	-47.230507
763.671875	-47.238129
764.648438	-46.264843
765.625000	-47.123680
766.601562	-47.292068
767.578125	-47.296902
768.554688	-46.298664
769.531250	-46.803471
770.507812	-46.547955
771.484375	-47.174038
772.460938	-48.252228
773.437500	-47.361900
774.414062	-47.119438
775.390625	-45.967289
776.367188	-47.745365
777.343750	-46.959023
778.320312	-46.720776
779.296875	-47.148811
780.273438	-48.439785
781.250000	-48.583794
782.226562	-48.003284
783.203125	-47.044674
784.179688	-46.883335
785.156250	-46.855888
786.132812	-46.804054
787.109375	-47.001499
788.085938	-45.771500
789.062500	-46.916332
790.039062	-47.116676
791.015625	-48.015388
791.992188	-46.328941
792.968750	-46.529617
793.945312	-46.401154
794.921875	-47.181427
795.898438	-46.809074
796.875000	-46.644753
797.851562	-46.304157
798.828125	-45.716797
799.804688	-45.602863
800.781250	-46.707096
801.757812	-46.893753
802.734375	-46.949165
803.710938	-46.785458
804.687500	-47.476959
805.664062	-46.683178
806.640625	-47.252632
807.617188	-46.808834
808.593750	-46.467167
809.570312	-46.286602
810.546875	-46.879215
811.523438	-48.055271
812.500000	-47.154430
813.476562	-45.954632
814.453125	-46.850067
815.429688	-46.951164
816.406250	-46.280674
817.382812	-47.270447
818.359375	-46.345589
819.335938	-47.048298
820.312500	-46.425667
821.289062	-46.860607
822.265625	-47.628563
823.242188	-46.367863
824.218750	-46.970497
825.195312	-46.691376
826.171875	-47.504387
827.148438	-45.696239
828.125000	-47.357307
829.101562	-47.431694
830.078125	-47.089142
831.054688	-46.777786
832.031250	-46.402473
833.007812	-46.982090
833.984375	-46.871815
834.960938	-47.340717
835.937500	-47.379627
836.914062	-46.908966
837.890625	-47.860546
838.867188	-47.082699
839.843750	-47.862930
840.820312	-47.899792
841.796875	-46.499557
842.773438	-46.859615
843.750000	-47.630566
844.726562	-46.296719
845.703125	-47.868267
846.679688	-47.795082
847.656250	-46.137066
848.632812	-46.199093
849.609375	-46.592937
850.585938	-46.939156
851.562500	-47.082447
852.539062	-46.886284
853.515625	-47.161037
854.492188	-46.879295
855.468750	-47.031216
856.445312	-46.789936
857.421875	-46.496643
858.398438	-47.206955
859.375000	-46.732498
860.351562	-46.348930
861.328125	-47.206146
862.304688	-46.876122
863.281250	-47.627998
864.257812	-46.575897
865.234375	-47.595539
866.210938	-46.478718
867.187500	-47.258286
868.164062	-46.374813
869.140625	-46.610794
870.117188	-45.996391
871.093750	-46.617847
872.070312	-46.162170
873.046875	-46.412273
874.023438	-46.373150
875.000000	-47.268944
875.976562	-46.626762
876.953125	-46.956776
877.929688	-47.394714
878.906250	-47.026142
879.882812	-47.056744
880.859375	-46.378418
881.835938	-46.027779
882.812500	-47.169426
883.789062	-46.889713
884.765625	-47.007835
885.742188	-46.920696
886.718750	-46.438671
887.695312	-47.049717
888.671875	-46.371586
889.648438	-45.103256
890.625000	-47.786293
891.601562	-47.451317
892.578125	-47.734318
893.554688	-47.722317
894.531250	-47.090279
895.507812	-47.308907
896.484375	-47.412300
897.460938	-47.469147
898.437500	-48.018353
899.414062	-47.516285
900.390625	-46.706074
901.367188	-45.978115
902.343750	-46.224812
903.320312	-47.063732
904.296875	-47.332638
905.273438	-46.119858
906.250000	-45.929207
907.226562	-46.436661
908.203125	-47.532425
909.179688	-47.544868
910.156250	-47.464294
911.132812	-46.578156
912.109375	-45.117241
913.085938	-47.683250
914.062500	-47.010330
915.039062	-47.262821
916.015625	-48.536785
916.992188	-46.263565
917.968750	-46.166569
918.945312	-47.173523
919.921875	-47.016182
920.898438	-46.098225
921.875000	-46.722504
922.851562	-48.255196
923.828125	-45.880180
924.804688	-46.811764
925.781250	-46.934776
926.757812	-46.059189
927.734375	-47.325191
928.710938	-47.684845
929.687500	-47.087284
930.664062	-46.448738
931.640625	-46.493008
932.617188	-46.329613
933.593750	-47.133320
934.570312	-47.232761
935.546875	-45.944466
936.523438	-46.748295
937.500000	-46.896702
938.476562	-46.856209
939.453125	-46.543629
940.429688	-46.744080
941.406250	-46.370888
942.382812	-46.340893
943.359375	-47.709270
944.335938	-48.137089
945.312500	-46.339020
946.289062	-46.874863
947.265625	-46.867783
948.242188	-47.192322
949.218750	-46.647514
950.195312	-46.110699
951.171875	-47.338902
952.148438	-47.055614
953.125000	-45.997353
954.101562	-47.521538
955.078125	-46.385010
956.054688	-46.651638
957.031250	-45.926037
958.007812	-47.456398
958.984375	-47.105148
959.960938	-48.390949
960.937500	-47.968166
961.914062	-47.347206
962.890625	-47.060020
963.867188	-46.262550
964.843750	-46.549023
965.820312	-47.493622
966.796875	-47.676994
967.773438	-48.358379
968.750000	-47.741722
969.726562	-47.074219
970.703125	-46.205914
971.679688	-47.019955
972.656250	-46.687767
973.632812	-46.511250
974.609375	-46.130371
975.585938	-46.696545
976.562500	-47.068665
977.539062	-46.485020
978.515625	-47.166283
979.492188	-46.442860
980.468750	-46.373676
981.445312	-47.092617
982.421875	-46.983696
983.398438	-46.217525
984.375000	-47.987144
985.351562	-47.226898
986.328125	-46.945065
987.304688	-45.819290
988.281250	-47.045147
989.257812	-49.179016
990.234375	-47.790260
991.210938	-47.554222
992.187500	-46.490105
993.164062	-47.463615
994.140625	-47.465294
995.117188	-46.882744
996.093750	-47.170647
997.070312	-48.001545
998.046875	-47.575584
999.023438	-47.317371
1000.000000	-47.291801
1000.976562	-45.306011
1001.953125	-46.698071
1002.929688	-45.559120
1003.906250	-47.176449
1004.882812	-47.081139
1005.859375	-45.581524
1006.835938	-46.792404
1007.812500	-46.370487
1008.789062	-47.798100
1009.765625	-46.720135
1010.742188	-47.607323
1011.718750	-47.202808
1012.695312	-48.439903
1013.671875	-47.799561
1014.648438	-46.559437
1015.625000	-46.725159
1016.601562	-46.601688
1017.578125	-46.516850
1018.554688	-47.002747
1019.531250	-46.187405
1020.507812	-46.815945
1021.484375	-46.941383
1022.460938	-47.502415
1023.437500	-47.501919
1024.414062	-47.909416
1025.390625	-46.509789
1026.367188	-47.677341
1027.343750	-46.032364
1028.320312	-48.362926
1029.296875	-46.885780
1030.273438	-47.366436
1031.250000	-47.981770
1032.226562	-47.770576
1033.203125	-47.283443
1034.179688	-47.398914
1035.156250	-47.319527
1036.132812	-46.226410
1037.109375	-47.258095
1038.085938	-48.696754
1039.062500	-46.893574
1040.039062	-48.743408
1041.015625	-47.148991
1041.992188	-46.904308
1042.968750	-47.969673
1043.945312	-46.981171
1044.921875	-46.400284
1045.898438	-45.540443
1046.875000	-45.804611
1047.851562	-45.887150
1048.828125	-48.040150
1049.804688	-47.179386
1050.781250	-46.144108
1051.757812	-46.521896
1052.734375	-48.833305
1053.710938	-47.782177
1054.687500	-46.312088
1055.664062	-45.933014
1056.640625	-47.474316
1057.617188	-47.784893
1058.593750	-47.567062
1059.570312	-46.802437
1060.546875	-46.198658
1061.523438	-46.653877
1062.500000	-47.854527
1063.476562	-47.697960
1064.453125	-47.977283
1065.429688	-47.856384
1066.406250	-47.827343
1067.382812	-47.455269
1068.359375	-46.965988
1069.335938	-44.889977
1070.312500	-47.071041
1071.289062	-48.245819
1072.265625	-46.257607
1073.242188	-46.203045
1074.218750	-45.707233
1075.195312	-46.336777
1076.171875	-47.589821
1077.148438	-47.326218
1078.125000	-47.780235
1079.101562	-47.291206
1080.078125	-47.154221
1081.054688	-47.321918
1082.031250	-47.235889
1083.007812	-47.384598
1083.984375	-47.220081
1084.960938	-47.161579
1085.937500	-47.498852
1086.914062	-46.909168
1087.890625	-45.321602
1088.867188	-48.284599
1089.843750	-49.217091
1090.820312	-47.635830
1091.796875	-48.228512
1092.773438	-46.381359
1093.750000	-47.131260
1094.726562	-48.843803
1095.703125	-46.556076
1096.679688	-46.135769
1097.656250	-47.892487
1098.632812	-47.229633
1099.609375	-45.558342
1100.585938	-47.350067
1101.562500	-46.658947
1102.539062	-46.598888
1103.515625	-46.988075
1104.492188	-46.755440
1105.468750	-47.371815
1106.445312	-46.646225
1107.421875	-47.140793
1108.398438	-46.800255
1109.375000	-48.281860
1110.351562	-47.406395
1111.328125	-47.688103
1112.304688	-47.134392
1113.281250	-47.458954
1114.257812	-47.338139
1115.234375	-46.326504
1116.210938	-48.268116
1117.187500	-46.898540
1118.164062	-47.615330
1119.140625	-46.851894
1120.117188	-46.179665
1121.093750	-46.539059
1122.070312	-46.547951
1123.046875	-45.791557
1124.023438	-46.249889
1125.000000	-46.864719
1125.976562	-45.903442
1126.953125	-47.983219
1127.929688	-47.093361
1128.906250	-46.596443
1129.882812	-47.392521
1130.859375	-46.038052
1131.835938	-47.137936
1132.812500	-45.683800
1133.789062	-46.666958
1134.765625	-47.214737
1135.742188	-48.093407
1136.718750	-46.157200
1137.695312	-47.141232
1138.671875	-46.633720
1139.648438	-46.753323
1140.625000	-46.393002
1141.601562	-46.298927
1142.578125	-47.622742
1143.554688	-46.103733
1144.531250	-48.492477
1145.507812	-46.878719
1146.484375	-47.660221
1147.460938	-47.703747
1148.437500	-45.761768
1149.414062	-47.226433
1150.390625	-46.748249
1151.367188	-46.563183
1152.343750	-46.269306
1153.320312	-45.182961
1154.296875	-47.752460
1155.273438	-46.776943
1156.250000	-47.139568
1157.226562	-47.463112
1158.203125	-47.230045
1159.179688	-46.620453
1160.156250	-46.344799
1161.132812	-48.197227
1162.109375	-47.627148
1163.085938	-47.183929
1164.062500	-47.063869
1165.039062	-47.495468
1166.015625	-46.201965
1166.992188	-46.605335
1167.968750	-47.288467
1168.945312	-46.094440
1169.921875	-46.332081
1170.898438	-46.688831
1171.875000	-46.349106
1172.851562	-47.123310
1173.828125	-47.038940
1174.804688	-46.583229
1175.781250	-46.446739
1176.757812	-46.609222
1177.734375	-47.467587
1178.710938	-48.222626
1179.687500	-46.807209
1180.664062	-47.496143
1181.640625	-46.398022
1182.617188	-46.692280
1183.593750	-46.412033
1184.570312	-47.260929
1185.546875	-46.680035
1186.523438	-45.646141
1187.500000	-47.127136
1188.476562	-47.131081
1189.453125	-45.897984
1190.429688	-46.391796
1191.406250	-46.346882
1192.382812	-46.616592
1193.359375	-46.254723
1194.335938	-45.475151
1195.312500	-46.637230
1196.289062	-47.323002
1197.265625	-47.485481
1198.242188	-47.432529
1199.218750	-47.860455
1200.195312	-47.319633
1201.171875	-46.238815
1202.148438	-46.211517
1203.125000	-46.288532
1204.101562	-47.380413
1205.078125	-46.191208
1206.054688	-47.213074
1207.031250	-47.083485
1208.007812	-45.978561
1208.984375	-46.482048
1209.960938	-46.768250
1210.937500	-47.607258
1211.914062	-48.379890
1212.890625	-46.618073
1213.867188	-46.997814
1214.843750	-48.159966
1215.820312	-47.068623
1216.796875	-47.262539
1217.773438	-45.718311
1218.750000	-46.331909
1219.726562	-47.512756
1220.703125	-47.546841
1221.679688	-46.604408
1222.656250	-47.353237
1223.632812	-46.856953
1224.609375	-47.385578
1225.585938	-46.455246
1226.562500	-48.275894
1227.539062	-48.038464
1228.515625	-46.901520
1229.492188	-47.429836
1230.468750	-46.280426
1231.445312	-46.610229
1232.421875	-47.109184
1233.398438	-47.412663
1234.375000	-47.985588
1235.351562	-47.012428
1236.328125	-47.577957
1237.304688	-46.460266
1238.281250	-48.290100
1239.257812	-45.811874
1240.234375	-45.681469
1241.210938	-46.294777
1242.187500	-46.128452
1243.164062	-47.704567
1244.140625	-47.305389
1245.117188	-46.111507
1246.093750	-46.558590
1247.070312	-45.932838
1248.046875	-46.413639
1249.023438	-46.327991
1250.000000	-47.188614
1250.976562	-47.088142
1251.953125	-46.495258
1252.929688	-46.640652
1253.906250	-46.255409
1254.882812	-46.998283
1255.859375	-46.561691
1256.835938	-47.754181
1257.812500	-46.877518
1258.789062	-47.208561
1259.765625	-46.990711
1260.742188	-47.571594
1261.718750	-47.363277
1262.695312	-46.520252
1263.671875	-47.030720
1264.648438	-47.076427
1265.625000	-46.212200
1266.601562	-48.164631
1267.578125	-47.494892
1268.554688	-46.488728
1269.531250	-46.629185
1270.507812	-46.844341
1271.484375	-47.616222
1272.460938	-46.609219
1273.437500	-47.338787
1274.414062	-46.520966
1275.390625	-46.760525
1276.367188	-47.786736
1277.343750	-46.036617
1278.320312	-47.246208
1279.296875	-47.143703
1280.273438	-47.089935
1281.250000	-47.080425
1282.226562	-47.583019
1283.203125	-48.148018
1284.179688	-46.109200
1285.156250	-46.456078
1286.132812	-47.271973
1287.109375	-48.314671
1288.085938	-47.632980
1289.062500	-46.669594
1290.039062	-46.554775
1291.015625	-46.880203
1291.992188	-47.090191
1292.968750	-46.651745
1293.945312	-47.960697
1294.921875	-46.392944
1295.898438	-47.235329
1296.875000	-45.745171
1297.851562	-46.761814
1298.828125	-46.023090
1299.804688	-46.305660
1300.781250	-47.029335
1301.757812	-48.435757
1302.734375	-47.031612
1303.710938	-46.486374
1304.687500	-48.449703
1305.664062	-47.038544
1306.640625	-46.250137
1307.617188	-47.515491
1308.593750	-47.263306
1309.570312	-47.722595
1310.546875	-47.196972
1311.523438	-47.006218
1312.500000	-47.224976
1313.476562	-46.967041
1314.453125	-45.605961
1315.429688	-46.629139
1316.406250	-46.490856
1317.382812	-46.755978
1318.359375	-46.724880
1319.335938	-46.121742
1320.312500	-48.798981
1321.289062	-46.612839
1322.265625	-47.572231
1323.242188	-47.586864
1324.218750	-47.134357
1325.195312	-48.043381
1326.171875	-47.956993
1327.148438	-47.701500
1328.125000	-47.447071
1329.101562	-46.479630
1330.078125	-46.199844
1331.054688	-47.028374
1332.031250	-46.717060
1333.007812	-47.337158
1333.984375	-47.747387
1334.960938	-47.693550
1335.937500	-46.497402
1336.914062	-46.691319
1337.890625	-46.901936
1338.867188	-47.437332
1339.843750	-47.525726
1340.820312	-47.485390
1341.796875	-46.820263
1342.773438	-47.607754
1343.750000	-47.190735
1344.726562	-47.650486
1345.703125	-48.375130
1346.679688	-46.433399
1347.656250	-45.727814
1348.632812	-46.641041
1349.609375	-46.232891
1350.585938	-47.773273
1351.562500	-47.802380
1352.539062	-47.737392
1353.515625	-46.427536
1354.492188	-46.855175
1355.468750	-46.920620
1356.445312	-47.436134
1357.421875	-47.122620
1358.398438	-46.091064
1359.375000	-46.236366
1360.351562	-46.257320
1361.328125	-47.090797
1362.304688	-47.016209
1363.281250	-47.880360
1364.257812	-45.949509
1365.234375	-47.116756
1366.210938	-46.228981
1367.187500	-47.573578
1368.164062	-46.243183
1369.140625	-47.408817
1370.117188	-48.296822
1371.093750	-47.066444
1372.070312	-46.649799
1373.046875	-48.022495
1374.023438	-46.642551
1375.000000	-47.172298
1375.976562	-47.258614
1376.953125	-46.470085
1377.929688	-47.671108
1378.906250	-47.285023
1379.882812	-47.169460
1380.859375	-46.918682
1381.835938	-46.920193
1382.812500	-47.654949
1383.789062	-47.556274
1384.765625	-46.422054
1385.742188	-47.936279
1386.718750	-47.195217
1387.695312	-46.534351
1388.671875	-46.442024
1389.648438	-47.070839
1390.625000	-46.373821
1391.601562	-46.840439
1392.578125	-45.937366
1393.554688	-46.973415
1394.531250	-47.091850
1395.507812	-46.650833
1396.484375	-46.805103
1397.460938	-46.611458
1398.437500	-46.877682
1399.414062	-47.221870
1400.390625	-47.386181
1401.367188	-47.610500
1402.343750	-47.116905
1403.320312	-46.252666
1404.296875	-47.085098
1405.273438	-47.381760
1406.250000	-47.506214
1407.226562	-46.881485
1408.203125	-45.580276
1409.179688	-47.081329
1410.156250	-47.833290
1411.132812	-46.937569
1412.109375	-47.532063
1413.085938	-46.766838
1414.062500	-46.218746
1415.039062	-46.916317
1416.015625	-45.852089
1416.992188	-46.947037
1417.968750	-46.856010
1418.945312	-46.394348
1419.921875	-48.016129
1420.898438	-46.807877
1421.875000	-48.130093
1422.851562	-48.584743
1423.828125	-47.145798
1424.804688	-46.220680
1425.781250	-46.767933
1426.757812	-45.103146
1427.734375	-47.203220
1428.710938	-47.367046
1429.687500	-47.150139
1430.664062	-46.357609
1431.640625	-46.912231
1432.617188	-47.252041
1433.593750	-46.733719
1434.570312	-47.124748
1435.546875	-47.519417
1436.523438	-48.348915
1437.500000	-47.714512
1438.476562	-46.859615
1439.453125	-46.461842
1440.429688	-46.735546
1441.406250	-46.374104
1442.382812	-46.696690
1443.359375	-47.059055
1444.335938	-46.464169
1445.312500	-48.346046
1446.289062	-47.403076
1447.265625	-47.668697
1448.242188	-46.343189
1449.218750	-47.179371
1450.195312	-47.506042
1451.171875	-47.176842
1452.148438	-46.985291
1453.125000	-48.530331
1454.101562	-46.789204
1455.078125	-47.575462
1456.054688	-46.675789
1457.031250	-46.956882
1458.007812	-47.137814
1458.984375	-46.814991
1459.960938	-47.831982
1460.937500	-47.066856
1461.914062	-47.359440
1462.890625	-47.136677
1463.867188	-47.251667
1464.843750	-46.894333
1465.820312	-45.961979
1466.796875	-45.420296
1467.773438	-46.630241
1468.750000	-45.949566
1469.726562	-46.670654
1470.703125	-46.813709
1471.679688	-47.388435
1472.656250	-46.597759
1473.632812	-47.291134
1474.609375	-46.292942
1475.585938	-47.068516
1476.562500	-45.955578
1477.539062	-46.594894
1478.515625	-46.038063
1479.492188	-47.370575
1480.468750	-47.161255
1481.445312	-48.367550
1482.421875	-46.930470
1483.398438	-46.998539
1484.375000	-46.855679
1485.351562	-46.968460
1486.328125	-46.552269
1487.304688	-46.633854
1488.281250	-46.500267
1489.257812	-47.570610
1490.234375	-47.485626
1491.210938	-47.243294
1492.187500	-46.781525
1493.164062	-46.431831
1494.140625	-47.378796
1495.117188	-47.067154
1496.093750	-46.645897
1497.070312	-47.533253
1498.046875	-46.712193
1499.023438	-47.999275
1500.000000	-47.694546
1500.976562	-46.314651
1501.953125	-47.254765
1502.929688	-46.059704
1503.906250	-47.256748
1504.882812	-47.254303
1505.859375	-47.021030
1506.835938	-46.756634
1507.812500	-47.154583
1508.789062	-47.020004
1509.765625	-47.851734
1510.742188	-47.433048
1511.718750	-46.986275
1512.695312	-46.472893
1513.671875	-45.707821
1514.648438	-46.048679
1515.625000	-47.176167
1516.601562	-47.145756
1517.578125	-46.466541
1518.554688	-47.483147
1519.531250	-46.501076
1520.507812	-46.895786
1521.484375	-46.787888
1522.460938	-46.518024
1523.437500	-46.589668
1524.414062	-47.607979
1525.390625	-46.978550
1526.367188	-47.424500
1527.343750	-47.622787
1528.320312	-46.716160
1529.296875	-45.640812
1530.273438	-46.547752
1531.250000	-46.668556
1532.226562	-47.641399
1533.203125	-46.570175
1534.179688	-47.560852
1535.156250	-46.379898
1536.132812	-47.903240
1537.109375	-46.315781
1538.085938	-46.704979
1539.062500	-47.444786
1540.039062	-48.339252
1541.015625	-48.336090
1541.992188	-46.862408
1542.968750	-46.531727
1543.945312	-47.273693
1544.921875	-47.030491
1545.898438	-47.073860
1546.875000	-46.263878
1547.851562	-46.987400
1548.828125	-46.776814
1549.804688	-47.878811
1550.781250	-48.082687
1551.757812	-46.781261
1552.734375	-46.491455
1553.710938	-46.765244
1554.687500	-47.708542
1555.664062	-46.036427
1556.640625	-47.224213
1557.617188	-46.895138
1558.593750	-45.359306
1559.570312	-48.038609
1560.546875	-48.091610
1561.523438	-46.470299
1562.500000	-46.436268
1563.476562	-47.029900
1564.453125	-46.359959
1565.429688	-47.540337
1566.406250	-46.311798
1567.382812	-46.833725
1568.359375	-48.704109
1569.335938	-47.317905
1570.312500	-46.620396
1571.289062	-47.895615
1572.265625	-46.823490
1573.242188	-48.354195
1574.218750	-46.962006
1575.195312	-48.477375
1576.171875	-46.318329
1577.148438	-46.277946
1578.125000	-47.792141
1579.101562	-47.025238
1580.078125	-47.094650
1581.054688	-46.239544
1582.031250	-46.553146
1583.007812	-48.207439
1583.984375	-47.269657
1584.960938	-47.709534
1585.937500	-46.959988
1586.914062	-45.519974
1587.890625	-45.144657
1588.867188	-45.873379
1589.843750	-46.778923
1590.820312	-47.169456
1591.796875	-47.231247
1592.773438	-46.836418
1593.750000	-46.137512
1594.726562	-47.426208
1595.703125	-45.871300
1596.679688	-47.319714
1597.656250	-46.856514
1598.632812	-46.553249
1599.609375	-46.808601
1600.585938	-48.009251
1601.562500	-46.777126
1602.539062	-46.680222
1603.515625	-47.317039
1604.492188	-46.021534
1605.468750	-45.579754
1606.445312	-46.669079
1607.421875	-47.179958
1608.398438	-47.630707
1609.375000	-46.843868
1610.351562	-46.881611
1611.328125	-47.218941
1612.304688	-47.352257
1613.281250	-47.121407
1614.257812	-47.148605
1615.234375	-46.565273
1616.210938	-48.287804
1617.187500	-47.448528
1618.164062	-46.346096
1619.140625	-45.648323
1620.117188	-46.540577
1621.093750	-46.886120
1622.070312	-47.784618
1623.046875	-47.430763
1624.023438	-46.728397
1625.000000	-47.385525
1625.976562	-45.770298
1626.953125	-46.837490
1627.929688	-47.013592
1628.906250	-47.151012
1629.882812	-46.228096
1630.859375	-47.929050
1631.835938	-46.298958
1632.812500	-46.690960
1633.789062	-47.237343
1634.765625	-47.072414
1635.742188	-48.670685
1636.718750	-46.679848
1637.695312	-46.875454
1638.671875	-46.725838
1639.648438	-46.148117
1640.625000	-46.281212
1641.601562	-46.825008
1642.578125	-46.810940
1643.554688	-46.443611
1644.531250	-45.554569
1645.507812	-46.724117
1646.484375	-47.997803
1647.460938	-46.895443
1648.437500	-46.632324
1649.414062	-48.002209
1650.390625	-47.159668
1651.367188	-47.117321
1652.343750	-46.445148
1653.320312	-46.503582
1654.296875	-46.453293
1655.273438	-46.992313
1656.250000	-46.206001
1657.226562	-46.265087
1658.203125	-46.578293
1659.179688	-46.444870
1660.156250	-46.548389
1661.132812	-47.169212
1662.109375	-46.414734
1663.085938	-47.175716
1664.062500	-47.159729
1665.039062	-46.135292
1666.015625	-47.427483
1666.992188	-46.662941
1667.968750	-46.985016
1668.945312	-46.173210
1669.921875	-46.314995
1670.898438	-47.772758
1671.875000	-47.007061
1672.851562	-47.090691
1673.828125	-47.396362
1674.804688	-47.284855
1675.781250	-47.515068
1676.757812	-46.646717
1677.734375	-46.701389
1678.710938	-46.038052
1679.687500	-47.589405
1680.664062	-46.876259
1681.640625	-47.163151
1682.617188	-47.079048
1683.593750	-46.377941
1684.570312	-47.336735
1685.546875	-46.633598
1686.523438	-47.459328
1687.500000	-47.604462
1688.476562	-47.187645
1689.453125	-46.601757
1690.429688	-46.823650
1691.406250	-46.636784
1692.382812	-46.758503
1693.359375	-46.841450
1694.335938	-47.526531
1695.312500	-47.023834
1696.289062	-48.390865
1697.265625	-46.575855
1698.242188	-46.732925
1699.218750	-45.429668
1700.195312	-48.257988
1701.171875	-47.615841
1702.148438	-47.114845
1703.125000	-46.900780
1704.101562	-47.050777
1705.078125	-46.530190
1706.054688	-45.971352
1707.031250	-46.632874
1708.007812	-46.309887
1708.984375	-47.352840
1709.960938	-47.269890
1710.937500	-46.698723
1711.914062	-46.499535
1712.890625	-47.198528
1713.867188	-47.129040
1714.843750	-46.710560
1715.820312	-45.838596
1716.796875	-47.788021
1717.773438	-47.175354
1718.750000	-47.401550
1719.726562	-47.056400
1720.703125	-47.261856
1721.679688	-47.235023
1722.656250	-47.563168
1723.632812	-46.692833
1724.609375	-48.278000
1725.585938	-46.061192
1726.562500	-47.822205
1727.539062	-46.983788
1728.515625	-47.846889
1729.492188	-47.204308
1730.468750	-46.709934
1731.445312	-47.194420
1732.421875	-46.530144
1733.398438	-47.570030
1734.375000	-47.362282
1735.351562	-47.104977
1736.328125	-46.354080
1737.304688	-46.340359
1738.281250	-47.287464
1739.257812	-48.467495
1740.234375	-46.428707
1741.210938	-47.429844
1742.187500	-47.267471
1743.164062	-46.227058
1744.140625	-47.074604
1745.117188	-47.462780
1746.093750	-47.099998
1747.070312	-47.109535
1748.046875	-47.253025
1749.023438	-47.643196
1750.000000	-46.994339
1750.976562	-46.801670
1751.953125	-46.526634
1752.929688	-45.121063
1753.906250	-47.926952
1754.882812	-47.036163
1755.859375	-46.989204
1756.835938	-47.585056
1757.812500	-46.640038
1758.789062	-47.306953
1759.765625	-46.598618
1760.742188	-47.278919
1761.718750	-47.785763
1762.695312	-47.349483
1763.671875	-48.222668
1764.648438	-46.674980
1765.625000	-46.893875
1766.601562	-46.924610
1767.578125	-47.496994
1768.554688	-46.490471
1769.531250	-47.297527
1770.507812	-46.688889
1771.484375	-48.123802
1772.460938	-47.296082
1773.437500	-46.530930
1774.414062	-47.699093
1775.390625	-47.429474
1776.367188	-48.302994
1777.343750	-47.852398
1778.320312	-47.171383
1779.296875	-46.779312
1780.273438	-47.756168
1781.250000	-47.171658
1782.226562	-47.116383
1783.203125	-46.609718
1784.179688	-46.066654
1785.156250	-46.567684
1786.132812	-47.601742
1787.109375	-47.023003
1788.085938	-47.001984
1789.062500	-46.353905
1790.039062	-46.726646
1791.015625	-46.364094
1791.992188	-47.764442
1792.968750	-47.338699
1793.945312	-46.755306
1794.921875	-47.296284
1795.898438	-45.986454
1796.875000	-45.937057
1797.851562	-47.741344
1798.828125	-45.820004
1799.804688	-46.047302
1800.781250	-44.976688
1801.757812	-48.043484
1802.734375	-47.232067
1803.710938	-46.550518
1804.687500	-47.732765
1805.664062	-48.481060
1806.640625	-47.291874
1807.617188	-46.101070
1808.593750	-46.037434
1809.570312	-47.711758
1810.546875	-48.110420
1811.523438	-48.010338
1812.500000	-46.985409
1813.476562	-46.384247
1814.453125	-46.163731
1815.429688	-46.468956
1816.406250	-47.087322
1817.382812	-46.602272
1818.359375	-48.024395
1819.335938	-47.003345
1820.312500	-46.174767
1821.289062	-47.313301
1822.265625	-46.214100
1823.242188	-48.158730
1824.218750	-47.085308
1825.195312	-46.408817
1826.171875	-46.525902
1827.148438	-46.719769
1828.125000	-46.502705
1829.101562	-46.420090
1830.078125	-46.630966
1831.054688	-46.901554
1832.031250	-46.010075
1833.007812	-46.543922
1833.984375	-47.275417
1834.960938	-45.653778
1835.937500	-47.171062
1836.914062	-47.412205
1837.890625	-48.035954
1838.867188	-47.156597
1839.843750	-46.485214
1840.820312	-47.436840
1841.796875	-45.332493
1842.773438	-47.404324
1843.750000	-46.279400
1844.726562	-47.125034
1845.703125	-46.869389
1846.679688	-46.779194
1847.656250	-46.310680
1848.632812	-48.289589
1849.609375	-47.714134
1850.585938	-46.642452
1851.562500	-47.700500
1852.539062	-47.971298
1853.515625	-47.770519
1854.492188	-45.880299
1855.468750	-46.357800
1856.445312	-46.819996
1857.421875	-46.158440
1858.398438	-45.188145
1859.375000	-45.825607
1860.351562	-47.230076
1861.328125	-47.270245
1862.304688	-47.614803
1863.281250	-46.287376
1864.257812	-47.311638
1865.234375	-47.281429
1866.210938	-46.152561
1867.187500	-47.529594
1868.164062	-48.251122
1869.140625	-48.699230
1870.117188	-47.145168
1871.093750	-47.762558
1872.070312	-47.411289
1873.046875	-46.529095
1874.023438	-46.648567
1875.000000	-46.430370
1875.976562	-46.863476
1876.953125	-47.254337
1877.929688	-46.841557
1878.906250	-46.665169
1879.882812	-47.877811
1880.859375	-46.887493
1881.835938	-46.937870
1882.812500	-47.438667
1883.789062	-48.889763
1884.765625	-48.069809
1885.742188	-46.827518
1886.718750	-47.001713
1887.695312	-46.962559
1888.671875	-45.573895
1889.648438	-45.845207
1890.625000	-46.386436
1891.601562	-45.573288
1892.578125	-46.447670
1893.554688	-46.829945
1894.531250	-47.090118
1895.507812	-47.171776
1896.484375	-47.407932
1897.460938	-47.075230
1898.437500	-46.850994
1899.414062	-46.867790
1900.390625	-47.526802
1901.367188	-48.592110
1902.343750	-46.011536
1903.320312	-47.692505
1904.296875	-46.871246
1905.273438	-46.138767
1906.250000	-46.164562
1907.226562	-48.099213
1908.203125	-45.807930
1909.179688	-46.099270
1910.156250	-45.958439
1911.132812	-46.290333
1912.109375	-46.787495
1913.085938	-46.041367
1914.062500	-47.023968
1915.039062	-46.814190
1916.015625	-46.945301
1916.992188	-46.151672
1917.968750	-46.924744
1918.945312	-47.886265
1919.921875	-46.611462
1920.898438	-46.362366
1921.875000	-46.465782
1922.851562	-48.148518
1923.828125	-46.557453
1924.804688	-47.446846
1925.781250	-46.993618
1926.757812	-47.329758
1927.734375	-46.444202
1928.710938	-46.333046
1929.687500	-46.937874
1930.664062	-48.454090
1931.640625	-46.834995
1932.617188	-48.092243
1933.593750	-48.405033
1934.570312	-46.361973
1935.546875	-47.221863
1936.523438	-46.885387
1937.500000	-47.075619
1938.476562	-47.039875
1939.453125	-46.735462
1940.429688	-47.277958
1941.406250	-46.873146
1942.382812	-46.766644
1943.359375	-47.910789
1944.335938	-46.606926
1945.312500	-47.747059
1946.289062	-47.016506
1947.265625	-47.030582
1948.242188	-46.730141
1949.218750	-46.637295
1950.195312	-47.233707
1951.171875	-47.820423
1952.148438	-48.556889
1953.125000	-47.206997
1954.101562	-46.421940
1955.078125	-47.498096
1956.054688	-46.665089
1957.031250	-46.114635
1958.007812	-47.821735
1958.984375	-46.402138
1959.960938	-47.926197
1960.937500	-47.284405
1961.914062	-47.650173
1962.890625	-47.767410
1963.867188	-46.901546
1964.843750	-46.446293
1965.820312	-46.498493
1966.796875	-47.372993
1967.773438	-47.128429
1968.750000	-45.917709
1969.726562	-46.755501
1970.703125	-46.459167
1971.679688	-47.249771
1972.656250	-47.114498
1973.632812	-46.075027
1974.609375	-46.819500
1975.585938	-46.425186
1976.562500	-47.262714
1977.539062	-45.824402
1978.515625	-46.986217
1979.492188	-47.965282
1980.468750	-47.162354
1981.445312	-46.589451
1982.421875	-47.202011
1983.398438	-47.273472
1984.375000	-48.147892
1985.351562	-47.943123
1986.328125	-47.412193
1987.304688	-46.361572
1988.281250	-46.438015
1989.257812	-46.955395
1990.234375	-46.995678
1991.210938	-47.688171
1992.187500	-47.334785
1993.164062	-48.770897
1994.140625	-47.773800
1995.117188	-46.047588
1996.093750	-45.863289
1997.070312	-48.480076
1998.046875	-47.007908
1999.023438	-47.645660
2000.000000	-48.448536
2000.976562	-47.555901
2001.953125	-46.872589
2002.929688	-45.892635
2003.906250	-46.683876
2004.882812	-46.415565
2005.859375	-46.744209
2006.835938	-46.988422
2007.812500	-47.992245
2008.789062	-47.283234
2009.765625	-47.260139
2010.742188	-47.419777
2011.718750	-46.957382
2012.695312	-46.721737
2013.671875	-47.552280
2014.648438	-47.323032
2015.625000	-47.625362
2016.601562	-47.620255
2017.578125	-47.656857
2018.554688	-47.022953
2019.531250	-47.543442
2020.507812	-46.327080
2021.484375	-46.480820
2022.460938	-47.500683
2023.437500	-46.804546
2024.414062	-46.338219
2025.390625	-46.252453
2026.367188	-46.710545
2027.343750	-47.821648
2028.320312	-47.500027
2029.296875	-47.037899
2030.273438	-47.231846
2031.250000	-47.990135
2032.226562	-47.721714
2033.203125	-47.045170
2034.179688	-46.761097
2035.156250	-47.373737
2036.132812	-46.112301
2037.109375	-46.521324
2038.085938	-46.014431
2039.062500	-48.410534
2040.039062	-46.930313
2041.015625	-46.292648
2041.992188	-47.537605
2042.968750	-47.183537
2043.945312	-46.804108
2044.921875	-47.148071
2045.898438	-46.865662
2046.875000	-47.213417
2047.851562	-46.932411
2048.828125	-46.959312
2049.804688	-48.063618
2050.781250	-46.469913
2051.757812	-46.760605
2052.734375	-46.685024
2053.710938	-46.590317
2054.687500	-47.747726
2055.664062	-47.632965
2056.640625	-44.987747
2057.617188	-46.136261
2058.593750	-46.997849
2059.570312	-47.045116
2060.546875	-46.970062
2061.523438	-46.549500
2062.500000	-45.700836
2063.476562	-47.724941
2064.453125	-47.761829
2065.429688	-47.256012
2066.406250	-47.998634
2067.382812	-47.028908
2068.359375	-46.987083
2069.335938	-46.507614
2070.312500	-47.584229
2071.289062	-47.238342
2072.265625	-46.893620
2073.242188	-45.784355
2074.218750	-47.043686
2075.195312	-46.595680
2076.171875	-46.239326
2077.148438	-48.769981
2078.125000	-46.737801
2079.101562	-48.019894
2080.078125	-47.202713
2081.054688	-47.954674
2082.031250	-46.359886
2083.007812	-47.290844
2083.984375	-46.171055
2084.960938	-46.927868
2085.937500	-47.678230
2086.914062	-47.311119
2087.890625	-46.781914
2088.867188	-46.417690
2089.843750	-46.873470
2090.820312	-46.092312
2091.796875	-46.000286
2092.773438	-46.207256
2093.750000	-47.201069
2094.726562	-47.680401
2095.703125	-47.263363
2096.679688	-46.992802
2097.656250	-47.560776
2098.632812	-46.116283
2099.609375	-46.131439
2100.585938	-47.615639
2101.562500	-46.986595
2102.539062	-46.021568
2103.515625	-46.637039
2104.492188	-46.291348
2105.468750	-46.037804
2106.445312	-47.528820
2107.421875	-47.439007
2108.398438	-46.953754
2109.375000	-46.603100
2110.351562	-46.743317
2111.328125	-47.444897
2112.304688	-46.660618
2113.281250	-47.055489
2114.257812	-47.379745
2115.234375	-46.629002
2116.210938	-45.833637
2117.187500	-48.192841
2118.164062	-47.050247
2119.140625	-45.484169
2120.117188	-47.314507
2121.093750	-45.848408
2122.070312	-47.061306
2123.046875	-46.803680
2124.023438	-45.498516
2125.000000	-46.527378
2125.976562	-45.720676
2126.953125	-48.048779
2127.929688	-47.298752
2128.906250	-45.655289
2129.882812	-47.581692
2130.859375	-47.879139
2131.835938	-46.999939
2132.812500	-46.901592
2133.789062	-47.913036
2134.765625	-47.429913
2135.742188	-45.673897
2136.718750	-47.014000
2137.695312	-46.892517
2138.671875	-46.980965
2139.648438	-48.586441
2140.625000	-47.810356
2141.601562	-47.717896
2142.578125	-47.198414
2143.554688	-47.245705
2144.531250	-47.704041
2145.507812	-47.464016
2146.484375	-46.023533
2147.460938	-46.746914
2148.437500	-46.610394
2149.414062	-46.847038
2150.390625	-45.639404
2151.367188	-47.265884
2152.343750	-47.544720
2153.320312	-46.381569
2154.296875	-48.487709
2155.273438	-46.560234
2156.250000	-46.558605
2157.226562	-46.754593
2158.203125	-46.805500
2159.179688	-48.193867
2160.156250	-48.168564
2161.132812	-48.332310
2162.109375	-46.093449
2163.085938	-46.962032
2164.062500	-45.966286
2165.039062	-46.670353
2166.015625	-47.620876
2166.992188	-46.763699
2167.968750	-46.964424
2168.945312	-46.530788
2169.921875	-45.879280
2170.898438	-47.214928
2171.875000	-46.587078
2172.851562	-46.379875
2173.828125	-45.243553
2174.804688	-47.207367
2175.781250	-48.236576
2176.757812	-47.408119
2177.734375	-46.374069
2178.710938	-48.234756
2179.687500	-47.514412
2180.664062	-48.668629
2181.640625	-47.204960
2182.617188	-46.933109
2183.593750	-46.375233
2184.570312	-46.403664
2185.546875	-46.877831
2186.523438	-47.439369
2187.500000	-47.914268
2188.476562	-46.322613
2189.453125	-45.880432
2190.429688	-48.308174
2191.406250	-47.747902
2192.382812	-47.127254
2193.359375	-46.443127
2194.335938	-47.927681
2195.312500	-47.743549
2196.289062	-46.650112
2197.265625	-46.642975
2198.242188	-46.435173
2199.218750	-45.786995
2200.195312	-47.226997
2201.171875	-46.275021
2202.148438	-46.955387
2203.125000	-47.150696
2204.101562	-46.455498
2205.078125	-46.457752
2206.054688	-46.872150
2207.031250	-47.751484
2208.007812	-47.414803
2208.984375	-46.476273
2209.960938	-46.313137
2210.937500	-46.998043
2211.914062	-47.066273
2212.890625	-46.532295
2213.867188	-46.370056
2214.843750	-46.921135
2215.820312	-46.418835
2216.796875	-46.280701
2217.773438	-46.393593
2218.750000	-46.385395
2219.726562	-46.181953
2220.703125	-46.342865
2221.679688	-47.151295
2222.656250	-45.953079
2223.632812	-45.636868
2224.609375	-47.095631
2225.585938	-47.500343
2226.562500	-45.678955
2227.539062	-46.604588
2228.515625	-46.497272
2229.492188	-46.313984
2230.468750	-46.680286
2231.445312	-47.835503
2232.421875	-47.016205
2233.398438	-46.176533
2234.375000	-47.107918
2235.351562	-47.169407
2236.328125	-47.649021
2237.304688	-46.105125
2238.281250	-46.305092
2239.257812	-46.586430
2240.234375	-46.946590
2241.210938	-46.776711
2242.187500	-47.692123
2243.164062	-46.055729
2244.140625	-46.902992
2245.117188	-47.233555
2246.093750	-47.463932
2247.070312	-46.104809
2248.046875	-47.441696
2249.023438	-47.136642
2250.000000	-46.356331
2250.976562	-45.498135
2251.953125	-46.404774
2252.929688	-47.885132
2253.906250	-46.599220
2254.882812	-47.688206
2255.859375	-46.234196
2256.835938	-46.590916
2257.812500	-47.606689
2258.789062	-47.718880
2259.765625	-46.904888
2260.742188	-47.693443
2261.718750	-46.340294
2262.695312	-47.094563
2263.671875	-47.443432
2264.648438	-46.383121
2265.625000	-45.878654
2266.601562	-47.131180
2267.578125	-46.393101
2268.554688	-46.834389
2269.531250	-46.051205
2270.507812	-46.756435
2271.484375	-47.312637
2272.460938	-46.390751
2273.437500	-46.985893
2274.414062	-46.950268
2275.390625	-47.295624
2276.367188	-47.088333
2277.343750	-47.485352
2278.320312	-46.463566
2279.296875	-46.111641
2280.273438	-47.213337
2281.250000	-48.130863
2282.226562	-48.009155
2283.203125	-46.964371
2284.179688	-46.710915
2285.156250	-49.175449
2286.132812	-46.561562
2287.109375	-47.063747
2288.085938	-46.772701
2289.062500	-46.981899
2290.039062	-47.261776
2291.015625	-47.098209
2291.992188	-45.777195
2292.968750	-46.436607
2293.945312	-46.585419
2294.921875	-47.526989
2295.898438	-47.420219
2296.875000	-47.342552
2297.851562	-46.147881
2298.828125	-47.796597
2299.804688	-46.949375
2300.781250	-46.704594
2301.757812	-46.405327
2302.734375	-46.253590
2303.710938	-46.654259
2304.687500	-46.052120
2305.664062	-47.997753
2306.640625	-47.470196
2307.617188	-47.036594
2308.593750	-46.605865
2309.570312	-46.896435
2310.546875	-45.365173
2311.523438	-47.215111
2312.500000	-46.581490
2313.476562	-47.119148
2314.453125	-46.883427
2315.429688	-46.690582
2316.406250	-46.014095
2317.382812	-47.628906
2318.359375	-48.491570
2319.335938	-46.837955
2320.312500	-46.724518
2321.289062	-46.651249
2322.265625	-46.325520
2323.242188	-47.010792
2324.218750	-46.347473
2325.195312	-47.596001
2326.171875	-46.892616
2327.148438	-46.294243
2328.125000	-45.432671
2329.101562	-47.285091
2330.078125	-46.182076
2331.054688	-45.701180
2332.031250	-45.932270
2333.007812	-47.362717
2333.984375	-46.647995
2334.960938	-47.388218
2335.937500	-47.110138
2336.914062	-48.037781
2337.890625	-47.484993
2338.867188	-46.243298
2339.843750	-46.071316
2340.820312	-46.724350
2341.796875	-47.029461
2342.773438	-47.069576
2343.750000	-47.245255
2344.726562	-46.269947
2345.703125	-46.691902
2346.679688	-45.458073
2347.656250	-46.843418
2348.632812	-48.316162
2349.609375	-47.736610
2350.585938	-47.666309
2351.562500	-46.240887
2352.539062	-46.057816
2353.515625	-47.828835
2354.492188	-46.497318
2355.468750	-47.123524
2356.445312	-47.015465
2357.421875	-46.539860
2358.398438	-47.317482
2359.375000	-47.535389
2360.351562	-47.468895
2361.328125	-47.217777
2362.304688	-47.415161
2363.281250	-47.071838
2364.257812	-46.975655
2365.234375	-46.329121
2366.210938	-47.542385
2367.187500	-46.972019
2368.164062	-46.562092
2369.140625	-47.509727
2370.117188	-46.757500
2371.093750	-46.389416
2372.070312	-47.482948
2373.046875	-47.625153
2374.023438	-46.608799
2375.000000	-47.141632
2375.976562	-46.841709
2376.953125	-48.079723
2377.929688	-47.478745
2378.906250	-46.869915
2379.882812	-48.507496
2380.859375	-47.171093
2381.835938	-47.834682
2382.812500	-47.047707
2383.789062	-47.686714
2384.765625	-47.245564
2385.742188	-47.240582
2386.718750	-46.576782
2387.695312	-47.567455
2388.671875	-48.451271
2389.648438	-47.277740
2390.625000	-47.974590
2391.601562	-46.642689
2392.578125	-46.226826
2393.554688	-46.093948
2394.531250	-46.909008
2395.507812	-47.306046
2396.484375	-46.814945
2397.460938	-45.860245
2398.437500	-46.493156
2399.414062	-47.601036
2400.390625	-47.124371
2401.367188	-46.667988
2402.343750	-47.019917
2403.320312	-46.477909
2404.296875	-45.963379
2405.273438	-47.367172
2406.250000	-47.663967
2407.226562	-46.126263
2408.203125	-47.933266
2409.179688	-48.338818
2410.156250	-47.957619
2411.132812	-46.884102
2412.109375	-46.239170
2413.085938	-47.170185
2414.062500	-45.910427
2415.039062	-46.386303
2416.015625	-45.786770
2416.992188	-46.534904
2417.968750	-46.641525
2418.945312	-46.252998
2419.921875	-47.001076
2420.898438	-46.063072
2421.875000	-46.863728
2422.851562	-47.753845
2423.828125	-47.588169
2424.804688	-46.324986
2425.781250	-46.215248
2426.757812	-48.247707
2427.734375	-46.602093
2428.710938	-48.020851
2429.687500	-46.316013
2430.664062	-46.351566
2431.640625	-46.607502
2432.617188	-46.923706
2433.593750	-47.205513
2434.570312	-47.397232
2435.546875	-47.756874
2436.523438	-47.210648
2437.500000	-48.205116
2438.476562	-47.010406
2439.453125	-46.456223
2440.429688	-48.827965
2441.406250	-47.195461
2442.382812	-47.752995
2443.359375	-47.817562
2444.335938	-47.155712
2445.312500	-47.539345
2446.289062	-47.766586
2447.265625	-47.096142
2448.242188	-46.932835
2449.218750	-47.312714
2450.195312	-46.922314
2451.171875	-46.390263
2452.148438	-45.958721
2453.125000	-46.170547
2454.101562	-47.022621
2455.078125	-46.902637
2456.054688	-47.772675
2457.031250	-46.278152
2458.007812	-46.202862
2458.984375	-48.237289
2459.960938	-46.732346
2460.937500	-47.199795
2461.914062	-46.506351
2462.890625	-46.557060
2463.867188	-46.089317
2464.843750	-45.760212
2465.820312	-47.336960
2466.796875	-46.219776
2467.773438	-47.995739
2468.750000	-47.661636
2469.726562	-47.949787
2470.703125	-47.153618
2471.679688	-47.641331
2472.656250	-48.151073
2473.632812	-45.575882
2474.609375	-48.062725
2475.585938	-47.870968
2476.562500	-46.267227
2477.539062	-48.197941
2478.515625	-47.255669
2479.492188	-47.048286
2480.468750	-46.986496
2481.445312	-47.436382
2482.421875	-47.009285
2483.398438	-47.242325
2484.375000	-47.457001
2485.351562	-47.081837
2486.328125	-46.045731
2487.304688	-46.180046
2488.281250	-47.349850
2489.257812	-46.359631
2490.234375	-46.240036
2491.210938	-47.207912
2492.187500	-47.426304
2493.164062	-47.077663
2494.140625	-46.096245
2495.117188	-47.417339
2496.093750	-47.038692
2497.070312	-46.327766
2498.046875	-46.935829
2499.023438	-47.226833
2500.000000	-47.600128
2500.976562	-46.208260
2501.953125	-47.251362
2502.929688	-47.109673
2503.906250	-47.298199
2504.882812	-46.622509
2505.859375	-47.734119
2506.835938	-47.284725
2507.812500	-46.759544
2508.789062	-47.924591
2509.765625	-47.720219
2510.742188	-47.828552
2511.718750	-47.092403
2512.695312	-45.909561
2513.671875	-47.452126
2514.648438	-47.507275
2515.625000	-47.143982
2516.601562	-46.990005
2517.578125	-46.627338
2518.554688	-46.428284
2519.531250	-47.701920
2520.507812	-47.316261
2521.484375	-47.867393
2522.460938	-47.293018
2523.437500	-47.424484
2524.414062	-46.848145
2525.390625	-47.096428
2526.367188	-46.882084
2527.343750	-47.275475
2528.320312	-46.251541
2529.296875	-46.236996
2530.273438	-47.497910
2531.250000	-47.164700
2532.226562	-46.110909
2533.203125	-46.913631
2534.179688	-48.515373
2535.156250	-48.618526
2536.132812	-47.373985
2537.109375	-47.966358
2538.085938	-46.500393
2539.062500	-46.724678
2540.039062	-48.503212
2541.015625	-46.228981
2541.992188	-47.658337
2542.968750	-46.494278
2543.945312	-46.454506
2544.921875	-48.191166
2545.898438	-47.809086
2546.875000	-46.646736
2547.851562	-47.069866
2548.828125	-47.037281
2549.804688	-45.949131
2550.781250	-45.762989
2551.757812	-46.796741
2552.734375	-46.962742
2553.710938	-45.387486
2554.687500	-47.107067
2555.664062	-49.297462
2556.640625	-47.134399
2557.617188	-46.917625
2558.593750	-46.214733
2559.570312	-47.305511
2560.546875	-46.781105
2561.523438	-47.935883
2562.500000	-48.579189
2563.476562	-47.312862
2564.453125	-45.607903
2565.429688	-47.065403
2566.406250	-48.201649
2567.382812	-46.838150
2568.359375	-47.085506
2569.335938	-46.830040
2570.312500	-46.920166
2571.289062	-46.355595
2572.265625	-47.196278
2573.242188	-47.624226
2574.218750	-46.876438
2575.195312	-47.151115
2576.171875	-46.486004
2577.148438	-46.357601
2578.125000	-45.633236
2579.101562	-47.062210
2580.078125	-46.354729
2581.054688	-46.674347
2582.031250	-47.248554
2583.007812	-47.368259
2583.984375	-47.248791
2584.960938	-46.715569
2585.937500	-48.324364
2586.914062	-47.095757
2587.890625	-45.873207
2588.867188	-47.290695
2589.843750	-47.675049
2590.820312	-46.808056
2591.796875	-45.677746
2592.773438	-47.657406
2593.750000	-45.959393
2594.726562	-48.293690
2595.703125	-47.892998
2596.679688	-46.878880
2597.656250	-45.750175
2598.632812	-45.540390
2599.609375	-46.936005
2600.585938	-46.774929
2601.562500	-47.756660
2602.539062	-47.376240
2603.515625	-46.340462
2604.492188	-48.450886
2605.468750	-47.456444
2606.445312	-45.492580
2607.421875	-47.392574
2608.398438	-45.086845
2609.375000	-46.316711
2610.351562	-46.450222
2611.328125	-47.435822
2612.304688	-47.520172
2613.281250	-45.917255
2614.257812	-47.304756
2615.234375	-46.858780
2616.210938	-46.778625
2617.187500	-48.045773
2618.164062	-46.450600
2619.140625	-46.108147
2620.117188	-46.723236
2621.093750	-46.204678
2622.070312	-48.007153
2623.046875	-47.748283
2624.023438	-47.238499
2625.000000	-47.173702
2625.976562	-46.759312
2626.953125	-47.561802
2627.929688	-46.566280
2628.906250	-46.963848
2629.882812	-46.911552
2630.859375	-45.401627
2631.835938	-46.306053
2632.812500	-46.470596
2633.789062	-47.053703
2634.765625	-47.995842
2635.742188	-47.327988
2636.718750	-47.229809
2637.695312	-47.920494
2638.671875	-47.468620
2639.648438	-46.245014
2640.625000	-47.350628
2641.601562	-46.346214
2642.578125	-46.832451
2643.554688	-46.322468
2644.531250	-45.432800
2645.507812	-46.151009
2646.484375	-47.584942
2647.460938	-45.547329
2648.437500	-46.451958
2649.414062	-46.474514
2650.390625	-45.879326
2651.367188	-46.872402
2652.343750	-45.787739
2653.320312	-48.017235
2654.296875	-47.870037
2655.273438	-46.443745
2656.250000	-45.223961
2657.226562	-46.494526
2658.203125	-46.034588
2659.179688	-46.396263
2660.156250	-46.627113
2661.132812	-46.966419
2662.109375	-47.412792
2663.085938	-47.690857
2664.062500	-48.612473
2665.039062	-46.165066
2666.015625	-47.553223
2666.992188	-47.335415
2667.968750	-45.687649
2668.945312	-46.133026
2669.921875	-47.084949
2670.898438	-47.166950
2671.875000	-46.181919
2672.851562	-46.533070
2673.828125	-48.055115
2674.804688	-46.775780
2675.781250	-47.332321
2676.757812	-47.943165
2677.734375	-47.864494
2678.710938	-46.679310
2679.687500	-47.133427
2680.664062	-46.682034
2681.640625	-46.991051
2682.617188	-47.414242
2683.593750	-46.894360
2684.570312	-47.823643
2685.546875	-48.751122
2686.523438	-48.427292
2687.500000	-46.104988
2688.476562	-47.346104
2689.453125	-47.315830
2690.429688	-48.102253
2691.406250	-47.541462
2692.382812	-47.180897
2693.359375	-46.962727
2694.335938	-48.315220
2695.312500	-47.177864
2696.289062	-47.098248
2697.265625	-46.464874
2698.242188	-46.276482
2699.218750	-46.856937
2700.195312	-47.432945
2701.171875	-47.025410
2702.148438	-47.283859
2703.125000	-45.801670
2704.101562	-47.466923
2705.078125	-47.300816
2706.054688	-46.011772
2707.031250	-47.399776
2708.007812	-46.489742
2708.984375	-45.518761
2709.960938	-47.036819
2710.937500	-46.584652
2711.914062	-47.695564
2712.890625	-47.235870
2713.867188	-47.349331
2714.843750	-47.483311
2715.820312	-46.520954
2716.796875	-46.299858
2717.773438	-47.259415
2718.750000	-47.023113
2719.726562	-47.483940
2720.703125	-46.465847
2721.679688	-47.122536
2722.656250	-46.218075
2723.632812	-48.999977
2724.609375	-46.298103
2725.585938	-47.117798
2726.562500	-46.336056
2727.539062	-46.269218
2728.515625	-46.896477
2729.492188	-46.711216
2730.468750	-46.643230
2731.445312	-47.388950
2732.421875	-48.350464
2733.398438	-47.954517
2734.375000	-46.529861
2735.351562	-46.827023
2736.328125	-47.240353
2737.304688	-47.352615
2738.281250	-46.347305
2739.257812	-46.811668
2740.234375	-47.213348
2741.210938	-47.690437
2742.187500	-48.630890
2743.164062	-47.094685
2744.140625	-47.338867
2745.117188	-45.705307
2746.093750	-46.953400
2747.070312	-47.730587
2748.046875	-47.362396
2749.023438	-46.740501
2750.000000	-46.650127
2750.976562	-47.854927
2751.953125	-46.534073
2752.929688	-46.149048
2753.906250	-47.525002
2754.882812	-46.274178
2755.859375	-47.833508
2756.835938	-47.263794
2757.812500	-46.595921
2758.789062	-45.388153
2759.765625	-46.778416
2760.742188	-46.291195
2761.718750	-45.976109
2762.695312	-46.219807
2763.671875	-46.503410
2764.648438	-47.561455
2765.625000	-46.488079
2766.601562	-47.440388
2767.578125	-45.608757
2768.554688	-47.099186
2769.531250	-47.210438
2770.507812	-46.314949
2771.484375	-45.613159
2772.460938	-47.496025
2773.437500	-48.303749
2774.414062	-46.743111
2775.390625	-46.397923
2776.367188	-46.540695
2777.343750	-46.824310
2778.320312	-46.809494
2779.296875	-47.335621
2780.273438	-48.347832
2781.250000	-47.891972
2782.226562	-46.825378
2783.203125	-47.954903
2784.179688	-47.519779
2785.156250	-47.438648
2786.132812	-47.248913
2787.109375	-47.953827
2788.085938	-47.256256
2789.062500	-49.209160
2790.039062	-47.100349
2791.015625	-46.928703
2791.992188	-47.486465
2792.968750	-47.472363
2793.945312	-46.730057
2794.921875	-46.807602
2795.898438	-46.622269
2796.875000	-47.856506
2797.851562	-47.193993
2798.828125	-47.689079
2799.804688	-47.232948
2800.781250	-47.296162
2801.757812	-47.353706
2802.734375	-46.854862
2803.710938	-47.819263
2804.687500	-48.267059
2805.664062	-47.391541
2806.640625	-46.189960
2807.617188	-46.180313
2808.593750	-47.286217
2809.570312	-47.489777
2810.546875	-48.245205
2811.523438	-47.902027
2812.500000	-47.730103
2813.476562	-47.230797
2814.453125	-47.256462
2815.429688	-46.840626
2816.406250	-46.942081
2817.382812	-47.087311
2818.359375	-46.533161
2819.335938	-45.839272
2820.312500	-45.727203
2821.289062	-47.081379
2822.265625	-46.809643
2823.242188	-45.791039
2824.218750	-46.149475
2825.195312	-47.292339
2826.171875	-47.007248
2827.148438	-47.965904
2828.125000	-46.847179
2829.101562	-46.571106
2830.078125	-47.883690
2831.054688	-45.864483
2832.031250	-45.986111
2833.007812	-46.490013
2833.984375	-46.540833
2834.960938	-47.725246
2835.937500	-46.792854
2836.914062	-46.738548
2837.890625	-47.346470
2838.867188	-48.014771
2839.843750	-46.982788
2840.820312	-46.705879
2841.796875	-45.797386
2842.773438	-47.012688
2843.750000	-47.028225
2844.726562	-47.260891
2845.703125	-46.688248
2846.679688	-46.069717
2847.656250	-47.237965
2848.632812	-46.849636
2849.609375	-46.542809
2850.585938	-46.115597
2851.562500	-47.429996
2852.539062	-47.007614
2853.515625	-46.806080
2854.492188	-47.695724
2855.468750	-45.988651
2856.445312	-46.112637
2857.421875	-48.115517
2858.398438	-46.720303
2859.375000	-47.624962
2860.351562	-47.665882
2861.328125	-46.408310
2862.304688	-47.409317
2863.281250	-47.256947
2864.257812	-45.655766
2865.234375	-46.107574
2866.210938	-47.366924
2867.187500	-47.214718
2868.164062	-45.710247
2869.140625	-46.384846
2870.117188	-46.554451
2871.093750	-46.232918
2872.070312	-47.072327
2873.046875	-46.282036
2874.023438	-46.596882
2875.000000	-47.019417
2875.976562	-47.009472
2876.953125	-47.280922
2877.929688	-46.935677
2878.906250	-45.465405
2879.882812	-47.435925
2880.859375	-46.529804
2881.835938	-46.159866
2882.812500	-45.963211
2883.789062	-46.526764
2884.765625	-47.052200
2885.742188	-46.841839
2886.718750	-46.275986
2887.695312	-45.941223
2888.671875	-46.592716
2889.648438	-46.650677
2890.625000	-46.919441
2891.601562	-47.828148
2892.578125	-47.273636
2893.554688	-46.536568
2894.531250	-46.129673
2895.507812	-47.124065
2896.484375	-47.146870
2897.460938	-47.016331
2898.437500	-46.260021
2899.414062	-45.672779
2900.390625	-45.634007
2901.367188	-46.373497
2902.343750	-46.608566
2903.320312	-46.484768
2904.296875	-47.588829
2905.273438	-47.526775
2906.250000	-46.580296
2907.226562	-46.295467
2908.203125	-46.110256
2909.179688	-47.002102
2910.156250	-49.138721
2911.132812	-47.270424
2912.109375	-46.067932
2913.085938	-47.401844
2914.062500	-47.247414
2915.039062	-47.698238
2916.015625	-47.864334
2916.992188	-47.327091
2917.968750	-46.148186
2918.945312	-46.858116
2919.921875	-46.813255
2920.898438	-46.189468
2921.875000	-46.382538
2922.851562	-48.131039
2923.828125	-47.809834
2924.804688	-46.965511
2925.781250	-45.941372
2926.757812	-46.297630
2927.734375	-47.052925
2928.710938	-47.693783
2929.687500	-47.205879
2930.664062	-46.808521
2931.640625	-48.635101
2932.617188	-47.752205
2933.593750	-47.596203
2934.570312	-46.357716
2935.546875	-47.678535
2936.523438	-46.749893
2937.500000	-46.093815
2938.476562	-47.346352
2939.453125	-45.875854
2940.429688	-46.725468
2941.406250	-46.221867
2942.382812	-46.610664
2943.359375	-46.026909
2944.335938	-46.204578
2945.312500	-46.725929
2946.289062	-45.991489
2947.265625	-46.863014
2948.242188	-47.502907
2949.218750	-46.801529
2950.195312	-47.106548
2951.171875	-46.119423
2952.148438	-46.976540
2953.125000	-46.444172
2954.101562	-45.691978
2955.078125	-47.218567
2956.054688	-46.496719
2957.031250	-46.868061
2958.007812	-46.937157
2958.984375	-46.922119
2959.960938	-47.720798
2960.937500	-45.619537
2961.914062	-46.363441
2962.890625	-47.009365
2963.867188	-46.614464
2964.843750	-46.447136
2965.820312	-46.698696
2966.796875	-46.921047
2967.773438	-47.201481
2968.750000	-46.768276
2969.726562	-47.497162
2970.703125	-48.070469
2971.679688	-46.984814
2972.656250	-47.111904
2973.632812	-47.569256
2974.609375	-47.940681
2975.585938	-46.273991
2976.562500	-46.157207
2977.539062	-47.005257
2978.515625	-46.814617
2979.492188	-46.329487
2980.468750	-48.149033
2981.445312	-46.058235
2982.421875	-46.818474
2983.398438	-46.652180
2984.375000	-47.355869
2985.351562	-47.865616
2986.328125	-47.262802
2987.304688	-47.311649
2988.281250	-46.326073
2989.257812	-47.534290
2990.234375	-47.991943
2991.210938	-47.214870
2992.187500	-45.966702
2993.164062	-46.458927
2994.140625	-47.046486
2995.117188	-47.455536
2996.093750	-48.199333
2997.070312	-46.850006
2998.046875	-47.930248
2999.023438	-47.752026
3000.000000	-46.795525
3000.976562	-46.507614
3001.953125	-47.151268
3002.929688	-47.782063
3003.906250	-46.816017
3004.882812	-47.582832
3005.859375	-46.682091
3006.835938	-45.053936
3007.812500	-47.774899
3008.789062	-46.881046
3009.765625	-46.882713
3010.742188	-46.593437
3011.718750	-46.249962
3012.695312	-47.200958
3013.671875	-47.052322
3014.648438	-47.227440
3015.625000	-47.691059
3016.601562	-47.512165
3017.578125	-46.554745
3018.554688	-46.873146
3019.531250	-46.620747
3020.507812	-47.821075
3021.484375	-48.028690
3022.460938	-47.112022
3023.437500	-47.601387
3024.414062	-46.537544
3025.390625	-48.173389
3026.367188	-46.754387
3027.343750	-47.523911
3028.320312	-46.251087
3029.296875	-47.361130
3030.273438	-47.005043
3031.250000	-47.325588
3032.226562	-47.649624
3033.203125	-48.098980
3034.179688	-47.591175
3035.156250	-46.782482
3036.132812	-47.279320
3037.109375	-46.445721
3038.085938	-47.277061
3039.062500	-47.239677
3040.039062	-46.516075
3041.015625	-46.631554
3041.992188	-46.992889
3042.968750	-46.388397
3043.945312	-47.485073
3044.921875	-48.071629
3045.898438	-47.073002
3046.875000	-46.920624
3047.851562	-47.090317
3048.828125	-48.090118
3049.804688	-46.532639
3050.781250	-47.214294
3051.757812	-47.077454
3052.734375	-47.771061
3053.710938	-47.429256
3054.687500	-47.360653
3055.664062	-48.278194
3056.640625	-46.370693
3057.617188	-47.347111
3058.593750	-46.554180
3059.570312	-47.730461
3060.546875	-47.371529
3061.523438	-46.467937
3062.500000	-46.996552
3063.476562	-47.604408
3064.453125	-46.484196
3065.429688	-47.610241
3066.406250	-48.188107
3067.382812	-47.132217
3068.359375	-47.417999
3069.335938	-47.634914
3070.312500	-48.184986
3071.289062	-46.647881
3072.265625	-46.032837
3073.242188	-47.224342
3074.218750	-47.776260
3075.195312	-47.657604
3076.171875	-46.160206
3077.148438	-46.573399
3078.125000	-47.189346
3079.101562	-47.203243
3080.078125	-46.123951
3081.054688	-47.205166
3082.031250	-47.268364
3083.007812	-45.695896
3083.984375	-48.569107
3084.960938	-47.710312
3085.937500	-47.143288
3086.914062	-47.236046
3087.890625	-48.649551
3088.867188	-47.751186
3089.843750	-46.824387
3090.820312	-48.021496
3091.796875	-46.360271
3092.773438	-47.371284
3093.750000	-48.162266
3094.726562	-47.049881
3095.703125	-47.142784
3096.679688	-46.819153
3097.656250	-47.542534
3098.632812	-46.324532
3099.609375	-46.796982
3100.585938	-46.455482
3101.562500	-46.324760
3102.539062	-46.266472
3103.515625	-46.820183
3104.492188	-47.353344
3105.468750	-46.539726
3106.445312	-46.703487
3107.421875	-46.851986
3108.398438	-47.078701
3109.375000	-47.487774
3110.351562	-46.913799
3111.328125	-47.301189
3112.304688	-46.711731
3113.281250	-46.500084
3114.257812	-45.918125
3115.234375	-46.480621
3116.210938	-47.030170
3117.187500	-48.192154
3118.164062	-46.644135
3119.140625	-45.581028
3120.117188	-46.498405
3121.093750	-46.627747
3122.070312	-46.903301
3123.046875	-46.649021
3124.023438	-47.094448
3125.000000	-47.389389
3125.976562	-45.140503
3126.953125	-47.045689
3127.929688	-47.777176
3128.906250	-47.274323
3129.882812	-46.550163
3130.859375	-46.564072
3131.835938	-46.641247
3132.812500	-46.632160
3133.789062	-47.204506
3134.765625	-47.119759
3135.742188	-46.664875
3136.718750	-46.712440
3137.695312	-46.738567
3138.671875	-48.162838
3139.648438	-46.441555
3140.625000	-47.542366
3141.601562	-47.205524
3142.578125	-46.385265
3143.554688	-47.965202
3144.531250	-46.387344
3145.507812	-47.025154
3146.484375	-47.551624
3147.460938	-45.828705
3148.437500	-46.219109
3149.414062	-46.577198
3150.390625	-47.297512
3151.367188	-46.838493
3152.343750	-46.337654
3153.320312	-46.864033
3154.296875	-46.029064
3155.273438	-46.482449
3156.250000	-47.418919
3157.226562	-45.868019
3158.203125	-45.698170
3159.179688	-46.766907
3160.156250	-47.476433
3161.132812	-48.437302
3162.109375	-46.443935
3163.085938	-47.057549
3164.062500	-48.027863
3165.039062	-47.473053
3166.015625	-47.089142
3166.992188	-46.576233
3167.968750	-47.301701
3168.945312	-46.580292
3169.921875	-45.697796
3170.898438	-46.161674
3171.875000	-46.917908
3172.851562	-47.002762
3173.828125	-46.740654
3174.804688	-47.909309
3175.781250	-47.233864
3176.757812	-46.840782
3177.734375	-46.072826
3178.710938	-46.757568
3179.687500	-45.844086
3180.664062	-46.647530
3181.640625	-46.209526
3182.617188	-46.249172
3183.593750	-46.686508
3184.570312	-45.662594
3185.546875	-47.308628
3186.523438	-46.676872
3187.500000	-46.089897
3188.476562	-46.181019
3189.453125	-46.603668
3190.429688	-45.855392
3191.406250	-46.674271
3192.382812	-48.676537
3193.359375	-47.438179
3194.335938	-47.478626
3195.312500	-47.917648
3196.289062	-47.031998
3197.265625	-46.010342
3198.242188	-48.293419
3199.218750	-46.785706
3200.195312	-47.347912
3201.171875	-46.190685
3202.148438	-47.036732
3203.125000	-47.571758
3204.101562	-46.592472
3205.078125	-46.756344
3206.054688	-46.689064
3207.031250	-46.789310
3208.007812	-46.120472
3208.984375	-46.605221
3209.960938	-47.299763
3210.937500	-46.122890
3211.914062	-46.161255
3212.890625	-47.840256
3213.867188	-46.487789
3214.843750	-47.462612
3215.820312	-47.108826
3216.796875	-46.954681
3217.773438	-46.682213
3218.750000	-46.337414
3219.726562	-47.447350
3220.703125	-46.975967
3221.679688	-47.940750
3222.656250	-46.671192
3223.632812	-46.409607
3224.609375	-47.442513
3225.585938	-47.505539
3226.562500	-48.228004
3227.539062	-48.194061
3228.515625	-47.212448
3229.492188	-46.546391
3230.468750	-46.995445
3231.445312	-46.773132
3232.421875	-47.853474
3233.398438	-46.356689
3234.375000	-46.728683
3235.351562	-46.008934
3236.328125	-48.125538
3237.304688	-46.911407
3238.281250	-48.056198
3239.257812	-47.295090
3240.234375	-46.942375
3241.210938	-46.023952
3242.187500	-45.600040
3243.164062	-45.851433
3244.140625	-46.616409
3245.117188	-47.330746
3246.093750	-47.630863
3247.070312	-47.250530
3248.046875	-46.743286
3249.023438	-47.496559
3250.000000	-47.210751
3250.976562	-45.721901
3251.953125	-46.401127
3252.929688	-45.905750
3253.906250	-46.566250
3254.882812	-47.015541
3255.859375	-46.534107
3256.835938	-46.508797
3257.812500	-46.759655
3258.789062	-48.223255
3259.765625	-46.751472
3260.742188	-46.935543
3261.718750	-47.033951
3262.695312	-47.008205
3263.671875	-47.240391
3264.648438	-45.736469
3265.625000	-47.397369
3266.601562	-46.276356
3267.578125	-47.562744
3268.554688	-47.073318
3269.531250	-47.376385
3270.507812	-47.400303
3271.484375	-46.329048
3272.460938	-46.855621
3273.437500	-48.865993
3274.414062	-48.465096
3275.390625	-45.327671
3276.367188	-46.760731
3277.343750	-46.412098
3278.320312	-48.122681
3279.296875	-46.325813
3280.273438	-45.443535
3281.250000	-45.746414
3282.226562	-47.100468
3283.203125	-47.359066
3284.179688	-47.699017
3285.156250	-46.655098
3286.132812	-47.002979
3287.109375	-48.231216
3288.085938	-47.111511
3289.062500	-46.955769
3290.039062	-46.681595
3291.015625	-47.056450
3291.992188	-47.178867
3292.968750	-46.953167
3293.945312	-47.543156
3294.921875	-46.893681
3295.898438	-47.136379
3296.875000	-47.513348
3297.851562	-47.276268
3298.828125	-47.077179
3299.804688	-46.595646
3300.781250	-47.218388
3301.757812	-46.355434
3302.734375	-47.093292
3303.710938	-47.395454
3304.687500	-47.178368
3305.664062	-47.719349
3306.640625	-47.921135
3307.617188	-48.167252
3308.593750	-48.520367
3309.570312	-46.301449
3310.546875	-46.383823
3311.523438	-47.413368
3312.500000	-46.221111
3313.476562	-48.907909
3314.453125	-47.551407
3315.429688	-47.953953
3316.406250	-47.000824
3317.382812	-46.933434
3318.359375	-46.413296
3319.335938	-47.684948
3320.312500	-46.621529
3321.289062	-46.911808
3322.265625	-47.526695
3323.242188	-46.184399
3324.218750	-46.465485
3325.195312	-47.389229
3326.171875	-46.880451
3327.148438	-47.127842
3328.125000	-46.484364
3329.101562	-47.980804
3330.078125	-47.504284
3331.054688	-45.701153
3332.031250	-47.643761
3333.007812	-48.165398
3333.984375	-48.671093
3334.960938	-47.832626
3335.937500	-46.915565
3336.914062	-46.674084
3337.890625	-47.021568
3338.867188	-46.341667
3339.843750	-45.689342
3340.820312	-46.492672
3341.796875	-46.958511
3342.773438	-48.022366
3343.750000	-46.958847
3344.726562	-47.260956
3345.703125	-46.882980
3346.679688	-47.611359
3347.656250	-45.671837
3348.632812	-47.632668
3349.609375	-48.072289
3350.585938	-46.850937
3351.562500	-47.374535
3352.539062	-46.611008
3353.515625	-46.282936
3354.492188	-46.722919
3355.468750	-46.574650
3356.445312	-47.543346
3357.421875	-46.328377
3358.398438	-46.162289
3359.375000	-48.510479
3360.351562	-47.154903
3361.328125	-47.602764
3362.304688	-47.016922
3363.281250	-47.362450
3364.257812	-45.859253
3365.234375	-46.605885
3366.210938	-47.249649
3367.187500	-47.669365
3368.164062	-46.219540
3369.140625	-46.183277
3370.117188	-46.497581
3371.093750	-47.060635
3372.070312	-46.962463
3373.046875	-47.274620
3374.023438	-47.075203
3375.000000	-47.829769
3375.976562	-46.671738
3376.953125	-45.811569
3377.929688	-46.222252
3378.906250	-46.933197
3379.882812	-46.980343
3380.859375	-47.326080
3381.835938	-46.015324
3382.812500	-47.531910
3383.789062	-46.262016
3384.765625	-46.131527
3385.742188	-45.522926
3386.718750	-46.101372
3387.695312	-48.115273
3388.671875	-47.541351
3389.648438	-47.601707
3390.625000	-47.400925
3391.601562	-48.468475
3392.578125	-46.296822
3393.554688	-47.615700
3394.531250	-48.955902
3395.507812	-48.570507
3396.484375	-47.136257
3397.460938	-47.271141
3398.437500	-46.607719
3399.414062	-46.893227
3400.390625	-47.121346
3401.367188	-46.619835
3402.343750	-46.814198
3403.320312	-47.440762
3404.296875	-47.454700
3405.273438	-46.885303
3406.250000	-46.896473
3407.226562	-46.450481
3408.203125	-47.122391
3409.179688	-46.555820
3410.156250	-45.055000
3411.132812	-45.053417
3412.109375	-47.201603
3413.085938	-47.971722
3414.062500	-47.098637
3415.039062	-46.694626
3416.015625	-46.266579
3416.992188	-47.863895
3417.968750	-47.244774
3418.945312	-45.599262
3419.921875	-46.134487
3420.898438	-46.846355
3421.875000	-46.376102
3422.851562	-47.192635
3423.828125	-47.680737
3424.804688	-46.599354
3425.781250	-47.392735
3426.757812	-46.479420
3427.734375	-45.955318
3428.710938	-48.496975
3429.687500	-47.229031
3430.664062	-46.701584
3431.640625	-46.189945
3432.617188	-46.401558
3433.593750	-46.500198
3434.570312	-46.748714
3435.546875	-47.146950
3436.523438	-47.071079
3437.500000	-46.132095
3438.476562	-45.859291
3439.453125	-46.922531
3440.429688	-47.634037
3441.406250	-45.429123
3442.382812	-45.688766
3443.359375	-47.924332
3444.335938	-48.042053
3445.312500	-47.934284
3446.289062	-47.476196
3447.265625	-47.268623
3448.242188	-47.023205
3449.218750	-46.621147
3450.195312	-46.695869
3451.171875	-46.439362
3452.148438	-46.839661
3453.125000	-47.532825
3454.101562	-48.662746
3455.078125	-48.348961
3456.054688	-46.831787
3457.031250	-46.417934
3458.007812	-46.547035
3458.984375	-47.072285
3459.960938	-46.745220
3460.937500	-47.129482
3461.914062	-45.946957
3462.890625	-46.856293
3463.867188	-46.541454
3464.843750	-46.846970
3465.820312	-46.345219
3466.796875	-47.437084
3467.773438	-46.640484
3468.750000	-46.595028
3469.726562	-46.111031
3470.703125	-46.326160
3471.679688	-46.791206
3472.656250	-47.046383
3473.632812	-46.068077
3474.609375	-45.943886
3475.585938	-48.498520
3476.562500	-47.441143
3477.539062	-48.071022
3478.515625	-47.302132
3479.492188	-45.788998
3480.468750	-46.207489
3481.445312	-47.351006
3482.421875	-47.606998
3483.398438	-47.410610
3484.375000	-46.557411
3485.351562	-45.974670
3486.328125	-48.145565
3487.304688	-47.308479
3488.281250	-46.571640
3489.257812	-46.007980
3490.234375	-47.911743
3491.210938	-46.178036
3492.187500	-46.719986
3493.164062	-47.080196
3494.140625	-46.732777
3495.117188	-46.970108
3496.093750	-47.273712
3497.070312	-46.521355
3498.046875	-47.522614
3499.023438	-46.075024
3500.000000	-46.436897
3500.976562	-47.421787
3501.953125	-46.686222
3502.929688	-46.900745
3503.906250	-46.395683
3504.882812	-46.019272
3505.859375	-48.000824
3506.835938	-47.268803
3507.812500	-46.999615
3508.789062	-47.290043
3509.765625	-46.858887
3510.742188	-46.695278
3511.718750	-47.525600
3512.695312	-47.873791
3513.671875	-47.654270
3514.648438	-46.744297
3515.625000	-46.686569
3516.601562	-47.235691
3517.578125	-46.155399
3518.554688	-47.166004
3519.531250	-47.678329
3520.507812	-46.958431
3521.484375	-47.163063
3522.460938	-46.074348
3523.437500	-45.816219
3524.414062	-46.662277
3525.390625	-46.514256
3526.367188	-46.754349
3527.343750	-46.862595
3528.320312	-47.507717
3529.296875	-47.296829
3530.273438	-47.664860
3531.250000	-47.456917
3532.226562	-47.464134
3533.203125	-46.360744
3534.179688	-46.669189
3535.156250	-46.408684
3536.132812	-45.917191
3537.109375	-46.391346
3538.085938	-45.959290
3539.062500	-46.983494
3540.039062	-48.141411
3541.015625	-47.032471
3541.992188	-47.201969
3542.968750	-47.197460
3543.945312	-46.948750
3544.921875	-45.626350
3545.898438	-46.764835
3546.875000	-47.948021
3547.851562	-46.618042
3548.828125	-46.525681
3549.804688	-47.170063
3550.781250	-47.435898
3551.757812	-46.259525
3552.734375	-47.462910
3553.710938	-47.423786
3554.687500	-47.165295
3555.664062	-47.223576
3556.640625	-46.420078
3557.617188	-47.014442
3558.593750	-47.874641
3559.570312	-47.396778
3560.546875	-47.494160
3561.523438	-47.800396
3562.500000	-46.331364
3563.476562	-45.683243
3564.453125	-47.224445
3565.429688	-47.203186
3566.406250	-45.790260
3567.382812	-46.254879
3568.359375	-47.854549
3569.335938	-47.192684
3570.312500	-47.832348
3571.289062	-45.980125
3572.265625	-46.076321
3573.242188	-47.266800
3574.218750	-46.378017
3575.195312	-47.442955
3576.171875	-47.419544
3577.148438	-47.179672
3578.125000	-46.181370
3579.101562	-47.444157
3580.078125	-46.893894
3581.054688	-46.146297
3582.031250	-45.719543
3583.007812	-47.232956
3583.984375	-46.667149
3584.960938	-47.992756
3585.937500	-47.447231
3586.914062	-46.193386
3587.890625	-46.696491
3588.867188	-47.545719
3589.843750	-47.218346
3590.820312	-47.038315
3591.796875	-46.967484
3592.773438	-46.135643
3593.750000	-47.980156
3594.726562	-46.117126
3595.703125	-46.425957
3596.679688	-47.697483
3597.656250	-46.874496
3598.632812	-45.850471
3599.609375	-46.647713
3600.585938	-46.128227
3601.562500	-47.443150
3602.539062	-45.212624
3603.515625	-47.499008
3604.492188	-47.373123
3605.468750	-48.250450
3606.445312	-47.510456
3607.421875	-46.055408
3608.398438	-45.355186
3609.375000	-46.567604
3610.351562	-45.550762
3611.328125	-46.244659
3612.304688	-45.926445
3613.281250	-47.444897
3614.257812	-48.238766
3615.234375	-46.410904
3616.210938	-47.417171
3617.187500	-47.190933
3618.164062	-47.198132
3619.140625	-48.536121
3620.117188	-45.840603
3621.093750	-45.853985
3622.070312	-46.506638
3623.046875	-47.251587
3624.023438	-46.590809
3625.000000	-45.374599
3625.976562	-46.728550
3626.953125	-45.989361
3627.929688	-47.248035
3628.906250	-47.072121
3629.882812	-47.287048
3630.859375	-46.736687
3631.835938	-48.094929
3632.812500	-48.171211
3633.789062	-46.557552
3634.765625	-45.409962
3635.742188	-47.982487
3636.718750	-47.096855
3637.695312	-47.077965
3638.671875	-46.008205
3639.648438	-46.831768
3640.625000	-46.422558
3641.601562	-46.045139
3642.578125	-46.943611
3643.554688	-46.516628
3644.531250	-45.998055
3645.507812	-46.750423
3646.484375	-47.408817
3647.460938	-46.992012
3648.437500	-47.623806
3649.414062	-47.674206
3650.390625	-47.529411
3651.367188	-46.718010
3652.343750	-47.192711
3653.320312	-46.530766
3654.296875	-46.410725
3655.273438	-46.836967
3656.250000	-46.868122
3657.226562	-46.490566
3658.203125	-47.570183
3659.179688	-48.356216
3660.156250	-47.436287
3661.132812	-46.749172
3662.109375	-46.903023
3663.085938	-47.664413
3664.062500	-46.884537
3665.039062	-46.670231
3666.015625	-46.327515
3666.992188	-45.983543
3667.968750	-48.476254
3668.945312	-47.452427
3669.921875	-47.279938
3670.898438	-46.792839
3671.875000	-46.601200
3672.851562	-47.369804
3673.828125	-47.317081
3674.804688	-47.631073
3675.781250	-47.364956
3676.757812	-46.714050
3677.734375	-46.547604
3678.710938	-47.074860
3679.687500	-46.905174
3680.664062	-47.247528
3681.640625	-47.316296
3682.617188	-47.552452
3683.593750	-47.119904
3684.570312	-47.556030
3685.546875	-47.128300
3686.523438	-47.716705
3687.500000	-46.789684
3688.476562	-46.015411
3689.453125	-46.550934
3690.429688	-46.316784
3691.406250	-46.550167
3692.382812	-46.400906
3693.359375	-45.748310
3694.335938	-47.243454
3695.312500	-47.204185
3696.289062	-47.059307
3697.265625	-46.895435
3698.242188	-46.545357
3699.218750	-46.346977
3700.195312	-46.693588
3701.171875	-46.250160
3702.148438	-47.166485
3703.125000	-46.006790
3704.101562	-45.613873
3705.078125	-46.463829
3706.054688	-46.156067
3707.031250	-47.416553
3708.007812	-47.809566
3708.984375	-48.823353
3709.960938	-46.518833
3710.937500	-46.914707
3711.914062	-46.418331
3712.890625	-48.194176
3713.867188	-48.309986
3714.843750	-47.389580
3715.820312	-48.062359
3716.796875	-47.080231
3717.773438	-47.286209
3718.750000	-47.259472
3719.726562	-47.738407
3720.703125	-46.376678
3721.679688	-46.611465
3722.656250	-46.143875
3723.632812	-47.704723
3724.609375	-46.457729
3725.585938	-45.697487
3726.562500	-46.887299
3727.539062	-47.049618
3728.515625	-47.352055
3729.492188	-46.906841
3730.468750	-46.599564
3731.445312	-47.323986
3732.421875	-46.167286
3733.398438	-47.424603
3734.375000	-47.286938
3735.351562	-47.304199
3736.328125	-46.667404
3737.304688	-47.132408
3738.281250	-47.283791
3739.257812	-46.571030
3740.234375	-48.022018
3741.210938	-48.557018
3742.187500	-47.947330
3743.164062	-47.256546
3744.140625	-47.571255
3745.117188	-47.481216
3746.093750	-46.345531
3747.070312	-46.422096
3748.046875	-47.450626
3749.023438	-46.985722
3750.000000	-47.343582
3750.976562	-48.939991
3751.953125	-47.113552
3752.929688	-46.291279
3753.906250	-46.725178
3754.882812	-47.161903
3755.859375	-47.140434
3756.835938	-47.636112
3757.812500	-47.900219
3758.789062	-47.859447
3759.765625	-46.319515
3760.742188	-47.225254
3761.718750	-47.266495
3762.695312	-47.659729
3763.671875	-46.444347
3764.648438	-47.015411
3765.625000	-47.877392
3766.601562	-47.350838
3767.578125	-47.632473
3768.554688	-47.092415
3769.531250	-47.950504
3770.507812	-47.544586
3771.484375	-46.762463
3772.460938	-45.516785
3773.437500	-46.433334
3774.414062	-47.828751
3775.390625	-48.336327
3776.367188	-47.788067
3777.343750	-46.854996
3778.320312	-46.494305
3779.296875	-45.437424
3780.273438	-48.006325
3781.250000	-46.831745
3782.226562	-47.533520
3783.203125	-46.524181
3784.179688	-46.526161
3785.156250	-46.531303
3786.132812	-45.562778
3787.109375	-47.113136
3788.085938	-48.064419
3789.062500	-48.444763
3790.039062	-46.938877
3791.015625	-46.551708
3791.992188	-46.665092
3792.968750	-46.713009
3793.945312	-47.486427
3794.921875	-47.301849
3795.898438	-47.553268
3796.875000	-46.847454
3797.851562	-46.813370
3798.828125	-45.990501
3799.804688	-47.631672
3800.781250	-47.769825
3801.757812	-46.511459
3802.734375	-46.200684
3803.710938	-46.272835
3804.687500	-47.501785
3805.664062	-47.460159
3806.640625	-45.620960
3807.617188	-47.964111
3808.593750	-47.533424
3809.570312	-46.946198
3810.546875	-47.572159
3811.523438	-47.426327
3812.500000	-47.617367
3813.476562	-46.379585
3814.453125	-45.793198
3815.429688	-46.482002
3816.406250	-46.349899
3817.382812	-46.972771
3818.359375	-47.330421
3819.335938	-46.789188
3820.312500	-46.412464
3821.289062	-48.217655
3822.265625	-48.128262
3823.242188	-46.763458
3824.218750	-46.586853
3825.195312	-46.884205
3826.171875	-46.365955
3827.148438	-46.845772
3828.125000	-47.301666
3829.101562	-46.451710
3830.078125	-47.127079
3831.054688	-45.961849
3832.031250	-46.997093
3833.007812	-47.707287
3833.984375	-46.903751
3834.960938	-46.293797
3835.937500	-46.182087
3836.914062	-46.654510
3837.890625	-48.010818
3838.867188	-47.059265
3839.843750	-45.653870
3840.820312	-47.668434
3841.796875	-47.335354
3842.773438	-47.805183
3843.750000	-47.808788
3844.726562	-47.197567
3845.703125	-45.168404
3846.679688	-47.834656
3847.656250	-46.200386
3848.632812	-45.816994
3849.609375	-46.942043
3850.585938	-47.126472
3851.562500	-46.991692
3852.539062	-46.711205
3853.515625	-46.070549
3854.492188	-46.166119
3855.468750	-46.861931
3856.445312	-46.624035
3857.421875	-46.560333
3858.398438	-48.371605
3859.375000	-47.967781
3860.351562	-47.385468
3861.328125	-47.906376
3862.304688	-46.402672
3863.281250	-46.565281
3864.257812	-47.373634
3865.234375	-47.380005
3866.210938	-47.757629
3867.187500	-46.208225
3868.164062	-47.079258
3869.140625	-48.631920
3870.117188	-48.257462
3871.093750	-47.157883
3872.070312	-46.920078
3873.046875	-45.993408
3874.023438	-46.457184
3875.000000	-47.265522
3875.976562	-47.085552
3876.953125	-47.826134
3877.929688	-46.771938
3878.906250	-46.631729
3879.882812	-48.283421
3880.859375	-47.678288
3881.835938	-47.121525
3882.812500	-46.899925
3883.789062	-46.461700
3884.765625	-46.724304
3885.742188	-47.369045
3886.718750	-47.109318
3887.695312	-47.219452
3888.671875	-46.867290
3889.648438	-47.345898
3890.625000	-46.020603
3891.601562	-46.204166
3892.578125	-45.830376
3893.554688	-46.558189
3894.531250	-46.483189
3895.507812	-46.784225
3896.484375	-46.308743
3897.460938	-47.721275
3898.437500	-47.692169
3899.414062	-47.972477
3900.390625	-47.452614
3901.367188	-46.299423
3902.343750	-46.985020
3903.320312	-47.278526
3904.296875	-47.379539
3905.273438	-48.228050
3906.250000	-48.945908
3907.226562	-47.330898
3908.203125	-47.282372
3909.179688	-46.175827
3910.156250	-47.753002
3911.132812	-45.302830
3912.109375	-46.370850
3913.085938	-46.946232
3914.062500	-46.841122
3915.039062	-46.264206
3916.015625	-46.164318
3916.992188	-47.478317
3917.968750	-46.356995
3918.945312	-46.115318
3919.921875	-47.567806
3920.898438	-47.841415
3921.875000	-46.636230
3922.851562	-47.337917
3923.828125	-47.180565
3924.804688	-46.789124
3925.781250	-46.240215
3926.757812	-47.406597
3927.734375	-46.389759
3928.710938	-47.154499
3929.687500	-46.785007
3930.664062	-47.427849
3931.640625	-45.212852
3932.617188	-46.529938
3933.593750	-46.042046
3934.570312	-47.235130
3935.546875	-47.308533
3936.523438	-45.977718
3937.500000	-45.340599
3938.476562	-45.836575
3939.453125	-46.933144
3940.429688	-47.241833
3941.406250	-47.039520
3942.382812	-46.691048
3943.359375	-47.001820
3944.335938	-45.616215
3945.312500	-46.462818
3946.289062	-48.571533
3947.265625	-48.043346
3948.242188	-47.591438
3949.218750	-46.021297
3950.195312	-46.828205
3951.171875	-45.609539
3952.148438	-47.162788
3953.125000	-46.641731
3954.101562	-46.661556
3955.078125	-47.522202
3956.054688	-46.170094
3957.031250	-47.597878
3958.007812	-46.008106
3958.984375	-47.221889
3959.960938	-46.597122
3960.937500	-48.368740
3961.914062	-46.737465
3962.890625	-46.784019
3963.867188	-48.363155
3964.843750	-48.656029
3965.820312	-46.639923
3966.796875	-47.250179
3967.773438	-47.588387
3968.750000	-47.294617
3969.726562	-47.374893
3970.703125	-46.740112
3971.679688	-47.217693
3972.656250	-47.452557
3973.632812	-45.861423
3974.609375	-46.932392
3975.585938	-47.243450
3976.562500	-46.832352
3977.539062	-47.272541
3978.515625	-47.226845
3979.492188	-47.060146
3980.468750	-46.763241
3981.445312	-45.698402
3982.421875	-46.216839
3983.398438	-46.986206
3984.375000	-47.865910
3985.351562	-48.032635
3986.328125	-46.379326
3987.304688	-46.811836
3988.281250	-46.469486
3989.257812	-46.406166
3990.234375	-46.739368
3991.210938	-46.746387
3992.187500	-47.787373
3993.164062	-47.045395
3994.140625	-46.426437
3995.117188	-47.095760
3996.093750	-47.198555
3997.070312	-47.128540
3998.046875	-45.953728
3999.023438	-46.983463
4000.000000	-47.963779
4000.976562	-46.982964
4001.953125	-46.976692
4002.929688	-46.299412
4003.906250	-47.004128
4004.882812	-46.998112
4005.859375	-46.212517
4006.835938	-46.359341
4007.812500	-45.923321
4008.789062	-47.296112
4009.765625	-46.689606
4010.742188	-46.908840
4011.718750	-48.115162
4012.695312	-47.549461
4013.671875	-46.514618
4014.648438	-46.580315
4015.625000	-46.749569
4016.601562	-46.211014
4017.578125	-46.812599
4018.554688	-48.006405
4019.531250	-46.809723
4020.507812	-46.584644
4021.484375	-46.720623
4022.460938	-47.123714
4023.437500	-46.407299
4024.414062	-46.440907
4025.390625	-46.770763
4026.367188	-47.514675
4027.343750	-46.679707
4028.320312	-47.133598
4029.296875	-47.361706
4030.273438	-46.179588
4031.250000	-45.094509
4032.226562	-47.175541
4033.203125	-47.104668
4034.179688	-47.591175
4035.156250	-46.856762
4036.132812	-46.358437
4037.109375	-47.269825
4038.085938	-47.269390
4039.062500	-45.889996
4040.039062	-46.467140
4041.015625	-47.485374
4041.992188	-47.226669
4042.968750	-47.265217
4043.945312	-46.603432
4044.921875	-46.731350
4045.898438	-46.306778
4046.875000	-46.524632
4047.851562	-47.867638
4048.828125	-45.939465
4049.804688	-47.209682
4050.781250	-47.610386
4051.757812	-47.277222
4052.734375	-47.001259
4053.710938	-46.366436
4054.687500	-47.383190
4055.664062	-47.075565
4056.640625	-47.342117
4057.617188	-47.001011
4058.593750	-46.975315
4059.570312	-46.323719
4060.546875	-46.835091
4061.523438	-47.633823
4062.500000	-47.145103
4063.476562	-47.327141
4064.453125	-46.764610
4065.429688	-47.263885
4066.406250	-45.974773
4067.382812	-46.644855
4068.359375	-46.380791
4069.335938	-45.832436
4070.312500	-46.558205
4071.289062	-46.712269
4072.265625	-45.505249
4073.242188	-46.467659
4074.218750	-47.307343
4075.195312	-47.466949
4076.171875	-46.813011
4077.148438	-46.579693
4078.125000	-48.446854
4079.101562	-45.621044
4080.078125	-47.029835
4081.054688	-46.813286
4082.031250	-47.390179
4083.007812	-46.960953
4083.984375	-45.939842
4084.960938	-47.328991
4085.937500	-47.321674
4086.914062	-47.217926
4087.890625	-48.567043
4088.867188	-46.630165
4089.843750	-46.341003
4090.820312	-47.818993
4091.796875	-47.376404
4092.773438	-47.977116
4093.750000	-46.534687
4094.726562	-47.059242
4095.703125	-47.209240
4096.679688	-47.872898
4097.656250	-47.374580
4098.632812	-46.579144
4099.609375	-46.620178
4100.585938	-48.333725
4101.562500	-48.466446
4102.539062	-47.555290
4103.515625	-46.627720
4104.492188	-48.184265
4105.468750	-46.099434
4106.445312	-46.785892
4107.421875	-45.985138
4108.398438	-46.485699
4109.375000	-46.951496
4110.351562	-47.174488
4111.328125	-47.282810
4112.304688	-46.891327
4113.281250	-47.963444
4114.257812	-46.314415
4115.234375	-47.501507
4116.210938	-47.271027
4117.187500	-48.013042
4118.164062	-45.618652
4119.140625	-47.534653
4120.117188	-46.535713
4121.093750	-47.625687
4122.070312	-46.539745
4123.046875	-46.718216
4124.023438	-47.706963
4125.000000	-47.089745
4125.976562	-47.477875
4126.953125	-47.754490
4127.929688	-47.860065
4128.906250	-47.289688
4129.882812	-47.064056
4130.859375	-48.049465
4131.835938	-46.805885
4132.812500	-46.572079
4133.789062	-46.742153
4134.765625	-47.614067
4135.742188	-47.088997
4136.718750	-46.659325
4137.695312	-46.629711
4138.671875	-48.138607
4139.648438	-47.346073
4140.625000	-46.809013
4141.601562	-46.549423
4142.578125	-47.014137
4143.554688	-47.623611
4144.531250	-47.180969
4145.507812	-45.835148
4146.484375	-46.011242
4147.460938	-46.812855
4148.437500	-48.576069
4149.414062	-47.672367
4150.390625	-46.498184
4151.367188	-46.427353
4152.343750	-47.251045
4153.320312	-47.576389
4154.296875	-46.154957
4155.273438	-46.058292
4156.250000	-46.379597
4157.226562	-46.511295
4158.203125	-47.830856
4159.179688	-46.963741
4160.156250	-46.207912
4161.132812	-46.969318
4162.109375	-47.754074
4163.085938	-47.076500
4164.062500	-47.274448
4165.039062	-46.676479
4166.015625	-46.153137
4166.992188	-45.964607
4167.968750	-46.849319
4168.945312	-47.215466
4169.921875	-47.699570
4170.898438	-47.617561
4171.875000	-48.099411
4172.851562	-46.308041
4173.828125	-47.839821
4174.804688	-47.615673
4175.781250	-45.756542
4176.757812	-46.158268
4177.734375	-46.974228
4178.710938	-47.692371
4179.687500	-47.331226
4180.664062	-47.661983
4181.640625	-46.847355
4182.617188	-47.252529
4183.593750	-46.500587
4184.570312	-46.548470
4185.546875	-47.526802
4186.523438	-48.583508
4187.500000	-47.147430
4188.476562	-46.494419
4189.453125	-48.679390
4190.429688	-48.796539
4191.406250	-46.044777
4192.382812	-45.341175
4193.359375	-46.264961
4194.335938	-47.070934
4195.312500	-46.591568
4196.289062	-47.829567
4197.265625	-46.648987
4198.242188	-47.312996
4199.218750	-46.504509
4200.195312	-46.565327
4201.171875	-48.138580
4202.148438	-46.471195
4203.125000	-46.306896
4204.101562	-46.962475
4205.078125	-46.036160
4206.054688	-46.967232
4207.031250	-47.196350
4208.007812	-46.128544
4208.984375	-47.517292
4209.960938	-46.208385
4210.937500	-47.945576
4211.914062	-48.294735
4212.890625	-46.737030
4213.867188	-47.557713
4214.843750	-48.415565
4215.820312	-46.644886
4216.796875	-46.603645
4217.773438	-46.954304
4218.750000	-46.440033
4219.726562	-46.916382
4220.703125	-48.322323
4221.679688	-45.624424
4222.656250	-46.841061
4223.632812	-46.499107
4224.609375	-46.795227
4225.585938	-47.688122
4226.562500	-46.364223
4227.539062	-46.551926
4228.515625	-46.049355
4229.492188	-47.002289
4230.468750	-47.612141
4231.445312	-47.665665
4232.421875	-47.588696
4233.398438	-46.152691
4234.375000	-45.880558
4235.351562	-46.674610
4236.328125	-46.871796
4237.304688	-47.145485
4238.281250	-47.313274
4239.257812	-47.528885
4240.234375	-46.402271
4241.210938	-46.972836
4242.187500	-46.216633
4243.164062	-46.475040
4244.140625	-46.390778
4245.117188	-45.849846
4246.093750	-46.668148
4247.070312	-47.779011
4248.046875	-48.167084
4249.023438	-47.128201
4250.000000	-47.105579
4250.976562	-45.828976
4251.953125	-46.707020
4252.929688	-46.481411
4253.906250	-46.486851
4254.882812	-46.699017
4255.859375	-46.970879
4256.835938	-47.160683
4257.812500	-47.283691
4258.789062	-45.762310
4259.765625	-45.710857
4260.742188	-46.731735
4261.718750	-46.337425
4262.695312	-45.930737
4263.671875	-47.208397
4264.648438	-46.790840
4265.625000	-46.995934
4266.601562	-46.790695
4267.578125	-47.629982
4268.554688	-48.486870
4269.531250	-46.262409
4270.507812	-47.092915
4271.484375	-46.965343
4272.460938	-46.074577
4273.437500	-47.393204
4274.414062	-47.204437
4275.390625	-47.265335
4276.367188	-46.631981
4277.343750	-46.422394
4278.320312	-47.197784
4279.296875	-47.723335
4280.273438	-47.180912
4281.250000	-46.512169
4282.226562	-47.939087
4283.203125	-47.556759
4284.179688	-46.913246
4285.156250	-47.455254
4286.132812	-47.821190
4287.109375	-46.609325
4288.085938	-46.752808
4289.062500	-46.497650
4290.039062	-46.237289
4291.015625	-47.728695
4291.992188	-47.245888
4292.968750	-47.163406
4293.945312	-46.435017
4294.921875	-45.730709
4295.898438	-47.018341
4296.875000	-46.763023
4297.851562	-46.056957
4298.828125	-47.886826
4299.804688	-47.241837
4300.781250	-46.539253
4301.757812	-44.412174
4302.734375	-45.575565
4303.710938	-47.629864
4304.687500	-46.535984
4305.664062	-47.533978
4306.640625	-47.021595
4307.617188	-47.471058
4308.593750	-47.784843
4309.570312	-46.864849
4310.546875	-47.725544
4311.523438	-46.909908
4312.500000	-47.809925
4313.476562	-47.496464
4314.453125	-47.260090
4315.429688	-46.598877
4316.406250	-46.518181
4317.382812	-45.991470
4318.359375	-46.505852
4319.335938	-46.523655
4320.312500	-46.567177
4321.289062	-46.688164
4322.265625	-47.761703
4323.242188	-47.114937
4324.218750	-48.228516
4325.195312	-46.763489
4326.171875	-46.506351
4327.148438	-45.729286
4328.125000	-46.989841
4329.101562	-46.194462
4330.078125	-46.294830
4331.054688	-47.647339
4332.031250	-46.242039
4333.007812	-46.538300
4333.984375	-46.473660
4334.960938	-48.141010
4335.937500	-46.077366
4336.914062	-45.897839
4337.890625	-46.279774
4338.867188	-47.442112
4339.843750	-46.998024
4340.820312	-47.842445
4341.796875	-47.212364
4342.773438	-47.125854
4343.750000	-47.566185
4344.726562	-46.612617
4345.703125	-48.707932
4346.679688	-48.463055
4347.656250	-47.404278
4348.632812	-45.658535
4349.609375	-45.971062
4350.585938	-46.391918
4351.562500	-46.792686
4352.539062	-47.679565
4353.515625	-47.151787
4354.492188	-46.503365
4355.468750	-46.782227
4356.445312	-47.734180
4357.421875	-48.513371
4358.398438	-47.429131
4359.375000	-47.295517
4360.351562	-46.157173
4361.328125	-47.121105
4362.304688	-47.163277
4363.281250	-46.209633
4364.257812	-46.240170
4365.234375	-46.365231
4366.210938	-46.566666
4367.187500	-46.958920
4368.164062	-47.343319
4369.140625	-46.843796
4370.117188	-46.630653
4371.093750	-46.463612
4372.070312	-47.251781
4373.046875	-47.294365
4374.023438	-47.135723
4375.000000	-46.067459
4375.976562	-45.740360
4376.953125	-46.527328
4377.929688	-46.914963
4378.906250	-47.400074
4379.882812	-47.017597
4380.859375	-46.808624
4381.835938	-46.945370
4382.812500	-47.039288
4383.789062	-46.743652
4384.765625	-47.321335
4385.742188	-48.358425
4386.718750	-47.349617
4387.695312	-45.545742
4388.671875	-47.159969
4389.648438	-46.584938
4390.625000	-46.833164
4391.601562	-46.460064
4392.578125	-47.197350
4393.554688	-46.579960
4394.531250	-46.353523
4395.507812	-46.061314
4396.484375	-47.777416
4397.460938	-46.356319
4398.437500	-46.997196
4399.414062	-46.440407
4400.390625	-46.756935
4401.367188	-47.723259
4402.343750	-47.557384
4403.320312	-47.132828
4404.296875	-47.965557
4405.273438	-47.952518
4406.250000	-45.112751
4407.226562	-47.410164
4408.203125	-46.707523
4409.179688	-45.497234
4410.156250	-46.398026
4411.132812	-46.869766
4412.109375	-48.540497
4413.085938	-47.432407
4414.062500	-48.069683
4415.039062	-47.577789
4416.015625	-46.214447
4416.992188	-47.180538
4417.968750	-46.221794
4418.945312	-45.730030
4419.921875	-46.111317
4420.898438	-46.624313
4421.875000	-46.034019
4422.851562	-47.664330
4423.828125	-46.547421
4424.804688	-45.980572
4425.781250	-47.464916
4426.757812	-48.003941
4427.734375	-45.643097
4428.710938	-47.285908
4429.687500	-46.089806
4430.664062	-46.943031
4431.640625	-47.987038
4432.617188	-47.507584
4433.593750	-47.373268
4434.570312	-45.731476
4435.546875	-46.174706
4436.523438	-46.499470
4437.500000	-46.516296
4438.476562	-46.609840
4439.453125	-48.202469
4440.429688	-47.714108
4441.406250	-46.866516
4442.382812	-46.698154
4443.359375	-48.779453
4444.335938	-47.172497
4445.312500	-45.807045
4446.289062	-45.940865
4447.265625	-46.350151
4448.242188	-48.132137
4449.218750	-47.039532
4450.195312	-47.146832
4451.171875	-46.933167
4452.148438	-47.273056
4453.125000	-45.789837
4454.101562	-47.863964
4455.078125	-47.111038
4456.054688	-47.439041
4457.031250	-47.180866
4458.007812	-48.322647
4458.984375	-46.125938
4459.960938	-46.863724
4460.937500	-47.811413
4461.914062	-47.150513
4462.890625	-47.340904
4463.867188	-47.363289
4464.843750	-46.834381
4465.820312	-46.324070
4466.796875	-45.923237
4467.773438	-47.680515
4468.750000	-46.398872
4469.726562	-46.045372
4470.703125	-47.659073
4471.679688	-47.362247
4472.656250	-47.225491
4473.632812	-46.821461
4474.609375	-48.057743
4475.585938	-47.811283
4476.562500	-47.310448
4477.539062	-47.619884
4478.515625	-46.457592
4479.492188	-47.804817
4480.468750	-47.533287
4481.445312	-48.925194
4482.421875	-46.668861
4483.398438	-47.944973
4484.375000	-47.432533
4485.351562	-46.734402
4486.328125	-46.449253
4487.304688	-48.137337
4488.281250	-46.705162
4489.257812	-45.833897
4490.234375	-47.548828
4491.210938	-45.897884
4492.187500	-47.586605
4493.164062	-46.467930
4494.140625	-48.494308
4495.117188	-46.249210
4496.093750	-48.103519
4497.070312	-45.727486
4498.046875	-46.595448
4499.023438	-46.802952
4500.000000	-47.627083
4500.976562	-47.712749
4501.953125	-48.172218
4502.929688	-46.540237
4503.906250	-46.658535
4504.882812	-46.490559
4505.859375	-47.550648
4506.835938	-47.015625
4507.812500	-47.072742
4508.789062	-47.428402
4509.765625	-46.177326
4510.742188	-44.994431
4511.718750	-46.911343
4512.695312	-47.269760
4513.671875	-46.668144
4514.648438	-47.525509
4515.625000	-47.126408
4516.601562	-48.467991
4517.578125	-47.773544
4518.554688	-47.555614
4519.531250	-47.161297
4520.507812	-47.848022
4521.484375	-48.157925
4522.460938	-47.191608
4523.437500	-46.627285
4524.414062	-47.560211
4525.390625	-47.499489
4526.367188	-47.008812
4527.343750	-47.796154
4528.320312	-47.409691
4529.296875	-46.496910
4530.273438	-47.465019
4531.250000	-46.471661
4532.226562	-47.162743
4533.203125	-46.856640
4534.179688	-46.662395
4535.156250	-46.543106
4536.132812	-46.493382
4537.109375	-47.520103
4538.085938	-46.977005
4539.062500	-46.286968
4540.039062	-45.710129
4541.015625	-47.006695
4541.992188	-46.696621
4542.968750	-46.218334
4543.945312	-46.374310
4544.921875	-48.099209
4545.898438	-46.590992
4546.875000	-47.019230
4547.851562	-47.134445
4548.828125	-47.068588
4549.804688	-47.421421
4550.781250	-46.293892
4551.757812	-48.327774
4552.734375	-46.871799
4553.710938	-46.608349
4554.687500	-46.826435
4555.664062	-45.931335
4556.640625	-46.152927
4557.617188	-47.369946
4558.593750	-46.388042
4559.570312	-47.469009
4560.546875	-46.477520
4561.523438	-46.798401
4562.500000	-46.884468
4563.476562	-47.057980
4564.453125	-47.108116
4565.429688	-47.699051
4566.406250	-47.421783
4567.382812	-46.043930
4568.359375	-47.719429
4569.335938	-46.803650
4570.312500	-45.325401
4571.289062	-46.809433
4572.265625	-46.813244
4573.242188	-47.161121
4574.218750	-46.974506
4575.195312	-47.046257
4576.171875	-46.556595
4577.148438	-47.804226
4578.125000	-48.533981
4579.101562	-47.493969
4580.078125	-46.687939
4581.054688	-46.591953
4582.031250	-48.019516
4583.007812	-47.783180
4583.984375	-46.687145
4584.960938	-47.255859
4585.937500	-46.214474
4586.914062	-47.877403
4587.890625	-46.885036
4588.867188	-47.497349
4589.843750	-47.182636
4590.820312	-48.474327
4591.796875	-45.457321
4592.773438	-46.341534
4593.750000	-47.900360
4594.726562	-46.183586
4595.703125	-46.097679
4596.679688	-46.738800
4597.656250	-46.735226
4598.632812	-46.491199
4599.609375	-47.159863
4600.585938	-47.141937
4601.562500	-46.400085
4602.539062	-48.044037
4603.515625	-47.303356
4604.492188	-47.520775
4605.468750	-47.135475
4606.445312	-46.825191
4607.421875	-47.930241
4608.398438	-46.964657
4609.375000	-46.381096
4610.351562	-46.462505
4611.328125	-48.135487
4612.304688	-47.395576
4613.281250	-46.489563
4614.257812	-46.219563
4615.234375	-46.564480
4616.210938	-47.426544
4617.187500	-47.953701
4618.164062	-46.865917
4619.140625	-46.719566
4620.117188	-46.205921
4621.093750	-46.377483
4622.070312	-47.080635
4623.046875	-46.034172
4624.023438	-46.740566
4625.000000	-47.286724
4625.976562	-47.718090
4626.953125	-47.111279
4627.929688	-46.698818
4628.906250	-45.508904
4629.882812	-46.830917
4630.859375	-47.473179
4631.835938	-47.414040
4632.812500	-47.494122
4633.789062	-47.608402
4634.765625	-46.739517
4635.742188	-47.212173
4636.718750	-47.461700
4637.695312	-47.066902
4638.671875	-46.807381
4639.648438	-46.669952
4640.625000	-46.883301
4641.601562	-48.239162
4642.578125	-46.366760
4643.554688	-45.887089
4644.531250	-46.928104
4645.507812	-46.294827
4646.484375	-46.958416
4647.460938	-47.258644
4648.437500	-47.003513
4649.414062	-46.195229
4650.390625	-45.770325
4651.367188	-46.408569
4652.343750	-46.952026
4653.320312	-45.852253
4654.296875	-45.620182
4655.273438	-48.076694
4656.250000	-47.175213
4657.226562	-46.668945
4658.203125	-47.607483
4659.179688	-46.654709
4660.156250	-47.654713
4661.132812	-46.986759
4662.109375	-47.441597
4663.085938	-47.869911
4664.062500	-47.431324
4665.039062	-46.913048
4666.015625	-46.579441
4666.992188	-46.384415
4667.968750	-46.759365
4668.945312	-48.121262
4669.921875	-47.872345
4670.898438	-47.527435
4671.875000	-47.296524
4672.851562	-48.230446
4673.828125	-46.003548
4674.804688	-47.627239
4675.781250	-46.785370
4676.757812	-46.765553
4677.734375	-46.668911
4678.710938	-46.644085
4679.687500	-46.680412
4680.664062	-47.276802
4681.640625	-47.255352
4682.617188	-47.002354
4683.593750	-48.290348
4684.570312	-46.743778
4685.546875	-46.198330
4686.523438	-46.539513
4687.500000	-47.457108
4688.476562	-45.915123
4689.453125	-47.052250
4690.429688	-47.959267
4691.406250	-46.302963
4692.382812	-46.720276
4693.359375	-46.592243
4694.335938	-47.825378
4695.312500	-47.134876
4696.289062	-48.260509
4697.265625	-47.265671
4698.242188	-46.468239
4699.218750	-46.230045
4700.195312	-47.186249
4701.171875	-47.055225
4702.148438	-47.302063
4703.125000	-48.186356
4704.101562	-45.919258
4705.078125	-46.995430
4706.054688	-46.399612
4707.031250	-45.531815
4708.007812	-47.605949
4708.984375	-47.190216
4709.960938	-45.854626
4710.937500	-47.437580
4711.914062	-47.293907
4712.890625	-47.405682
4713.867188	-47.203175
4714.843750	-46.082855
4715.820312	-46.226685
4716.796875	-45.723583
4717.773438	-45.912449
4718.750000	-47.705791
4719.726562	-49.074932
4720.703125	-48.367027
4721.679688	-46.888042
4722.656250	-48.597225
4723.632812	-47.340366
4724.609375	-47.219891
4725.585938	-46.646854
4726.562500	-47.248783
4727.539062	-47.073025
4728.515625	-46.778000
4729.492188	-47.761265
4730.468750	-48.680405
4731.445312	-46.643681
4732.421875	-46.777241
4733.398438	-46.252174
4734.375000	-46.394253
4735.351562	-47.643894
4736.328125	-46.344753
4737.304688	-46.691410
4738.281250	-46.108639
4739.257812	-46.718369
4740.234375	-47.111252
4741.210938	-46.824448
4742.187500	-46.817169
4743.164062	-47.228344
4744.140625	-47.526642
4745.117188	-47.980103
4746.093750	-46.337574
4747.070312	-47.063499
4748.046875	-45.755390
4749.023438	-45.642441
4750.000000	-46.084724
4750.976562	-47.619274
4751.953125	-46.120331
4752.929688	-46.677944
4753.906250	-47.164051
4754.882812	-47.223854
4755.859375	-48.828842
4756.835938	-46.870937
4757.812500	-47.542995
4758.789062	-47.336472
4759.765625	-47.917385
4760.742188	-47.726727
4761.718750	-47.943707
4762.695312	-46.888680
4763.671875	-47.975872
4764.648438	-47.708080
4765.625000	-46.723785
4766.601562	-46.202263
4767.578125	-46.304459
4768.554688	-46.675228
4769.531250	-46.215126
4770.507812	-47.599575
4771.484375	-47.384209
4772.460938	-46.654652
4773.437500	-47.516624
4774.414062	-47.349728
4775.390625	-47.526127
4776.367188	-46.916218
4777.343750	-45.908588
4778.320312	-46.313801
4779.296875	-44.738327
4780.273438	-45.893333
4781.250000	-48.059269
4782.226562	-47.444004
4783.203125	-47.696590
4784.179688	-48.345798
4785.156250	-47.287430
4786.132812	-47.611626
4787.109375	-46.698750
4788.085938	-47.792419
4789.062500	-46.903484
4790.039062	-47.973606
4791.015625	-47.561680
4791.992188	-47.691563
4792.968750	-47.712719
4793.945312	-45.875038
4794.921875	-46.105968
4795.898438	-46.298016
4796.875000	-46.409618
4797.851562	-46.910179
4798.828125	-45.895931
4799.804688	-47.411911
4800.781250	-46.111027
4801.757812	-46.817360
4802.734375	-47.302818
4803.710938	-47.294807
4804.687500	-46.827824
4805.664062	-47.260078
4806.640625	-46.453724
4807.617188	-45.272083
4808.593750	-46.673775
4809.570312	-46.867214
4810.546875	-47.082714
4811.523438	-46.840504
4812.500000	-47.078575
4813.476562	-45.773960
4814.453125	-47.214455
4815.429688	-47.178902
4816.406250	-48.253170
4817.382812	-46.879173
4818.359375	-47.900257
4819.335938	-46.531147
4820.312500	-46.525726
4821.289062	-47.083019
4822.265625	-46.375454
4823.242188	-47.641960
4824.218750	-46.939323
4825.195312	-46.762295
4826.171875	-46.293152
4827.148438	-47.165951
4828.125000	-47.797234
4829.101562	-46.228603
4830.078125	-46.958866
4831.054688	-47.188652
4832.031250	-46.843113
4833.007812	-46.903854
4833.984375	-46.693657
4834.960938	-47.012711
4835.937500	-46.035187
4836.914062	-46.118515
4837.890625	-46.929062
4838.867188	-46.579037
4839.843750	-46.891006
4840.820312	-47.233437
4841.796875	-45.951157
4842.773438	-47.410362
4843.750000	-47.667114
4844.726562	-47.679417
4845.703125	-47.642319
4846.679688	-48.460094
4847.656250	-45.741425
4848.632812	-45.788101
4849.609375	-46.410172
4850.585938	-46.302639
4851.562500	-46.667027
4852.539062	-46.609329
4853.515625	-46.964222
4854.492188	-46.375389
4855.468750	-46.505829
4856.445312	-45.462860
4857.421875	-46.632668
4858.398438	-46.644745
4859.375000	-44.771362
4860.351562	-46.974277
4861.328125	-45.871056
4862.304688	-47.370018
4863.281250	-47.806705
4864.257812	-46.996655
4865.234375	-46.440678
4866.210938	-47.912849
4867.187500	-47.813187
4868.164062	-47.003368
4869.140625	-45.944115
4870.117188	-47.285198
4871.093750	-46.089127
4872.070312	-46.698189
4873.046875	-46.961666
4874.023438	-46.863525
4875.000000	-47.347431
4875.976562	-47.516983
4876.953125	-46.713779
4877.929688	-46.363094
4878.906250	-45.267147
4879.882812	-47.103462
4880.859375	-47.422657
4881.835938	-46.605339
4882.812500	-47.778614
4883.789062	-46.864346
4884.765625	-46.327347
4885.742188	-47.688835
4886.718750	-46.905499
4887.695312	-46.676540
4888.671875	-47.106159
4889.648438	-46.182804
4890.625000	-46.904419
4891.601562	-47.015255
4892.578125	-45.829128
4893.554688	-46.977436
4894.531250	-47.795067
4895.507812	-47.657204
4896.484375	-47.076286
4897.460938	-46.998066
4898.437500	-46.606339
4899.414062	-46.666809
4900.390625	-47.347073
4901.367188	-47.289238
4902.343750	-46.293728
4903.320312	-46.182953
4904.296875	-46.724197
4905.273438	-46.310390
4906.250000	-46.845795
4907.226562	-46.872395
4908.203125	-47.481812
4909.179688	-46.777134
4910.156250	-46.878170
4911.132812	-46.325153
4912.109375	-46.958202
4913.085938	-46.652855
4914.062500	-46.502705
4915.039062	-46.958565
4916.015625	-46.631397
4916.992188	-47.172955
4917.968750	-46.723881
4918.945312	-47.195705
4919.921875	-46.707348
4920.898438	-47.083591
4921.875000	-47.651184
4922.851562	-46.838131
4923.828125	-46.798683
4924.804688	-47.346336
4925.781250	-46.876568
4926.757812	-47.463047
4927.734375	-46.176735
4928.710938	-47.226105
4929.687500	-46.624611
4930.664062	-47.035915
4931.640625	-46.965069
4932.617188	-47.176357
4933.593750	-46.269661
4934.570312	-46.786983
4935.546875	-47.090733
4936.523438	-47.671902
4937.500000	-47.172745
4938.476562	-47.391621
4939.453125	-46.738464
4940.429688	-46.538582
4941.406250	-47.086082
4942.382812	-46.574177
4943.359375	-47.057678
4944.335938	-47.012489
4945.312500	-47.539215
4946.289062	-45.885460
4947.265625	-46.552631
4948.242188	-46.868195
4949.218750	-46.815426
4950.195312	-47.081173
4951.171875	-46.974964
4952.148438	-47.007931
4953.125000	-46.315483
4954.101562	-46.520149
4955.078125	-46.936131
4956.054688	-47.150135
4957.031250	-45.829372
4958.007812	-45.867809
4958.984375	-46.477978
4959.960938	-47.169842
4960.937500	-46.802967
4961.914062	-47.681900
4962.890625	-46.485413
4963.867188	-47.353374
4964.843750	-46.914803
4965.820312	-47.165031
4966.796875	-46.265125
4967.773438	-46.155319
4968.750000	-47.321644
4969.726562	-47.923637
4970.703125	-46.287903
4971.679688	-48.757568
4972.656250	-46.059410
4973.632812	-47.081280
4974.609375	-46.920216
4975.585938	-46.349876
4976.562500	-47.993481
4977.539062	-47.415565
4978.515625	-46.996998
4979.492188	-46.933849
4980.468750	-47.058159
4981.445312	-47.113918
4982.421875	-46.814838
4983.398438	-47.897835
4984.375000	-47.318489
4985.351562	-46.710556
4986.328125	-45.995495
4987.304688	-46.559677
4988.281250	-46.034039
4989.257812	-45.885048
4990.234375	-46.372894
4991.210938	-45.696190
4992.187500	-46.503899
4993.164062	-47.897076
4994.140625	-48.071205
4995.117188	-47.785576
4996.093750	-47.346355
4997.070312	-47.625160
4998.046875	-45.873520
4999.023438	-46.898754
5000.000000	-46.560204
5000.976562	-46.928318
5001.953125	-46.638592
5002.929688	-46.176971
5003.906250	-47.667442
5004.882812	-47.529549
5005.859375	-47.851173
5006.835938	-46.946896
5007.812500	-47.120872
5008.789062	-47.235992
5009.765625	-47.589615
5010.742188	-46.062477
5011.718750	-46.536972
5012.695312	-46.762268
5013.671875	-46.603161
5014.648438	-47.790173
5015.625000	-46.666889
5016.601562	-47.071899
5017.578125	-47.757980
5018.554688	-46.808685
5019.531250	-46.678677
5020.507812	-46.310764
5021.484375	-47.875332
5022.460938	-47.772514
5023.437500	-48.481888
5024.414062	-46.314327
5025.390625	-47.420906
5026.367188	-48.236946
5027.343750	-47.510548
5028.320312	-46.562115
5029.296875	-47.525539
5030.273438	-47.722046
5031.250000	-48.061111
5032.226562	-47.848045
5033.203125	-46.114830
5034.179688	-45.463039
5035.156250	-46.377068
5036.132812	-47.782581
5037.109375	-46.343056
5038.085938	-47.641861
5039.062500	-46.393559
5040.039062	-46.806561
5041.015625	-46.080551
5041.992188	-47.085232
5042.968750	-46.153431
5043.945312	-47.023403
5044.921875	-46.573128
5045.898438	-46.861462
5046.875000	-46.280357
5047.851562	-46.938766
5048.828125	-46.459175
5049.804688	-47.603825
5050.781250	-46.811562
5051.757812	-46.439232
5052.734375	-46.847820
5053.710938	-46.206112
5054.687500	-46.730118
5055.664062	-46.861568
5056.640625	-46.680042
5057.617188	-47.275795
5058.593750	-46.653385
5059.570312	-47.615929
5060.546875	-46.227528
5061.523438	-46.456234
5062.500000	-48.014030
5063.476562	-47.589424
5064.453125	-47.291306
5065.429688	-47.217525
5066.406250	-46.395866
5067.382812	-46.891850
5068.359375	-48.281422
5069.335938	-47.985634
5070.312500	-46.231415
5071.289062	-46.501965
5072.265625	-47.092121
5073.242188	-47.517010
5074.218750	-46.450851
5075.195312	-47.666115
5076.171875	-46.839417
5077.148438	-47.596382
5078.125000	-47.375164
5079.101562	-47.640263
5080.078125	-45.329494
5081.054688	-47.777985
5082.031250	-46.784435
5083.007812	-48.199360
5083.984375	-46.681492
5084.960938	-46.561893
5085.937500	-47.321281
5086.914062	-46.172951
5087.890625	-46.363510
5088.867188	-46.816906
5089.843750	-47.652016
5090.820312	-46.800411
5091.796875	-46.254414
5092.773438	-46.833679
5093.750000	-47.339104
5094.726562	-47.933346
5095.703125	-47.924801
5096.679688	-47.009693
5097.656250	-48.095715
5098.632812	-48.058838
5099.609375	-46.896423
5100.585938	-47.021496
5101.562500	-47.288486
5102.539062	-46.904648
5103.515625	-46.457348
5104.492188	-46.948223
5105.468750	-47.147301
5106.445312	-47.913307
5107.421875	-47.947155
5108.398438	-47.051540
5109.375000	-46.515461
5110.351562	-46.723911
5111.328125	-45.814831
5112.304688	-46.213879
5113.281250	-47.257256
5114.257812	-47.830597
5115.234375	-46.636917
5116.210938	-46.933548
5117.187500	-46.715736
5118.164062	-47.276886
5119.140625	-48.348019
5120.117188	-47.609200
5121.093750	-47.368065
5122.070312	-47.495724
5123.046875	-47.082306
5124.023438	-47.472931
5125.000000	-46.571404
5125.976562	-47.342308
5126.953125	-47.658169
5127.929688	-47.133434
5128.906250	-47.419552
5129.882812	-47.517467
5130.859375	-47.319004
5131.835938	-47.543522
5132.812500	-47.671143
5133.789062	-46.291813
5134.765625	-48.228054
5135.742188	-47.297863
5136.718750	-46.284008
5137.695312	-47.549736
5138.671875	-46.627144
5139.648438	-48.291302
5140.625000	-46.512981
5141.601562	-46.052517
5142.578125	-47.419231
5143.554688	-48.684692
5144.531250	-47.605324
5145.507812	-46.751575
5146.484375	-47.236645
5147.460938	-46.120129
5148.437500	-46.846375
5149.414062	-47.487816
5150.390625	-46.886898
5151.367188	-47.103958
5152.343750	-48.141602
5153.320312	-47.614185
5154.296875	-46.521076
5155.273438	-46.485962
5156.250000	-45.526024
5157.226562	-47.651188
5158.203125	-48.053082
5159.179688	-47.503029
5160.156250	-47.739147
5161.132812	-47.094318
5162.109375	-46.517189
5163.085938	-45.567074
5164.062500	-45.799278
5165.039062	-46.602711
5166.015625	-46.634926
5166.992188	-45.425308
5167.968750	-46.306057
5168.945312	-46.295376
5169.921875	-47.332760
5170.898438	-47.412003
5171.875000	-46.134686
5172.851562	-46.554066
5173.828125	-47.650620
5174.804688	-46.503654
5175.781250	-47.512424
5176.757812	-48.752209
5177.734375	-48.261566
5178.710938	-46.052628
5179.687500	-47.316109
5180.664062	-46.817135
5181.640625	-46.983860
5182.617188	-48.223286
5183.593750	-47.237492
5184.570312	-47.154514
5185.546875	-46.927868
5186.523438	-46.779980
5187.500000	-46.385380
5188.476562	-47.400688
5189.453125	-45.924877
5190.429688	-47.566284
5191.406250	-46.490574
5192.382812	-45.875511
5193.359375	-47.728470
5194.335938	-47.336769
5195.312500	-46.641945
5196.289062	-46.996288
5197.265625	-47.840046
5198.242188	-47.647503
5199.218750	-45.247154
5200.195312	-46.006195
5201.171875	-46.839962
5202.148438	-46.462284
5203.125000	-46.660748
5204.101562	-47.741505
5205.078125	-46.838348
5206.054688	-46.626125
5207.031250	-46.425869
5208.007812	-46.392845
5208.984375	-46.237114
5209.960938	-47.165253
5210.937500	-46.553379
5211.914062	-47.500751
5212.890625	-47.662247
5213.867188	-46.981060
5214.843750	-47.162819
5215.820312	-46.372509
5216.796875	-47.464947
5217.773438	-48.092232
5218.750000	-46.315834
5219.726562	-47.269688
5220.703125	-47.385792
5221.679688	-45.817848
5222.656250	-46.271576
5223.632812	-47.082447
5224.609375	-45.585453
5225.585938	-46.686741
5226.562500	-48.434544
5227.539062	-45.755444
5228.515625	-46.096004
5229.492188	-47.895557
5230.468750	-47.180237
5231.445312	-46.907589
5232.421875	-47.223404
5233.398438	-47.151810
5234.375000	-47.226536
5235.351562	-46.253181
5236.328125	-45.108978
5237.304688	-45.917469
5238.281250	-48.153889
5239.257812	-47.270554
5240.234375	-46.729832
5241.210938	-47.856075
5242.187500	-45.712364
5243.164062	-46.602032
5244.140625	-47.228901
5245.117188	-47.986195
5246.093750	-47.417435
5247.070312	-47.564163
5248.046875	-47.061516
5249.023438	-48.660782
5250.000000	-46.616192
5250.976562	-47.002098
5251.953125	-48.521461
5252.929688	-47.276375
5253.906250	-47.325451
5254.882812	-46.951500
5255.859375	-46.445335
5256.835938	-46.279484
5257.812500	-46.893333
5258.789062	-46.309963
5259.765625	-46.670464
5260.742188	-46.677673
5261.718750	-46.841526
5262.695312	-47.183052
5263.671875	-46.799721
5264.648438	-47.937294
5265.625000	-47.940414
5266.601562	-45.852573
5267.578125	-44.841248
5268.554688	-47.802330
5269.531250	-47.872688
5270.507812	-45.924995
5271.484375	-46.699577
5272.460938	-46.491982
5273.437500	-48.329109
5274.414062	-47.097576
5275.390625	-46.101730
5276.367188	-47.305851
5277.343750	-47.769371
5278.320312	-47.709805
5279.296875	-47.373856
5280.273438	-47.577671
5281.250000	-46.429588
5282.226562	-46.702629
5283.203125	-47.199505
5284.179688	-46.774200
5285.156250	-46.418938
5286.132812	-46.481300
5287.109375	-47.247734
5288.085938	-46.312778
5289.062500	-47.313248
5290.039062	-45.877319
5291.015625	-46.193604
5291.992188	-46.177994
5292.968750	-46.464779
5293.945312	-47.076725
5294.921875	-47.510857
5295.898438	-46.595390
5296.875000	-46.411755
5297.851562	-46.203869
5298.828125	-47.377647
5299.804688	-46.617264
5300.781250	-47.160034
5301.757812	-47.233356
5302.734375	-45.623165
5303.710938	-46.974781
5304.687500	-47.247154
5305.664062	-46.831863
5306.640625	-46.268253
5307.617188	-46.495724
5308.593750	-47.510696
5309.570312	-45.686913
5310.546875	-46.069836
5311.523438	-46.622456
5312.500000	-47.072124
5313.476562	-46.996147
5314.453125	-48.133915
5315.429688	-47.467297
5316.406250	-47.039654
5317.382812	-47.455093
5318.359375	-47.266079
5319.335938	-46.972240
5320.312500	-47.186440
5321.289062	-45.245186
5322.265625	-46.652504
5323.242188	-48.039059
5324.218750	-47.041515
5325.195312	-46.143810
5326.171875	-45.619316
5327.148438	-47.599384
5328.125000	-46.919609
5329.101562	-45.871136
5330.078125	-47.855404
5331.054688	-47.962120
5332.031250	-46.463558
5333.007812	-47.113350
5333.984375	-48.175335
5334.960938	-46.768803
5335.937500	-47.089588
5336.914062	-46.073517
5337.890625	-47.590073
5338.867188	-47.220123
5339.843750	-46.876228
5340.820312	-46.398857
5341.796875	-47.572739
5342.773438	-47.241570
5343.750000	-46.452942
5344.726562	-48.000050
5345.703125	-47.598621
5346.679688	-48.316895
5347.656250	-48.881382
5348.632812	-46.468334
5349.609375	-47.436226
5350.585938	-45.951775
5351.562500	-47.200848
5352.539062	-47.381039
5353.515625	-45.999332
5354.492188	-46.583584
5355.468750	-47.152649
5356.445312	-47.041653
5357.421875	-48.444801
5358.398438	-46.465984
5359.375000	-46.763222
5360.351562	-46.482437
5361.328125	-46.416470
5362.304688	-46.963543
5363.281250	-46.567989
5364.257812	-46.709591
5365.234375	-46.816612
5366.210938	-46.902641
5367.187500	-46.718842
5368.164062	-47.790752
5369.140625	-46.590347
5370.117188	-46.342197
5371.093750	-46.046589
5372.070312	-47.173119
5373.046875	-47.844185
5374.023438	-47.698311
5375.000000	-47.646202
5375.976562	-47.034904
5376.953125	-46.611481
5377.929688	-46.557301
5378.906250	-47.182465
5379.882812	-46.855591
5380.859375	-45.986485
5381.835938	-46.551868
5382.812500	-46.542240
5383.789062	-47.417107
5384.765625	-46.681622
5385.742188	-47.097717
5386.718750	-47.127193
5387.695312	-47.775078
5388.671875	-47.325718
5389.648438	-46.689644
5390.625000	-47.167725
5391.601562	-46.720409
5392.578125	-46.882072
5393.554688	-47.885075
5394.531250	-47.455040
5395.507812	-46.896458
5396.484375	-46.476742
5397.460938	-47.047585
5398.437500	-47.570698
5399.414062	-47.459011
5400.390625	-46.295322
5401.367188	-47.383270
5402.343750	-46.542862
5403.320312	-47.860390
5404.296875	-46.784786
5405.273438	-46.275204
5406.250000	-46.813541
5407.226562	-47.517296
5408.203125	-47.635849
5409.179688	-47.314968
5410.156250	-46.644997
5411.132812	-47.809380
5412.109375	-46.292278
5413.085938	-47.231777
5414.062500	-46.830006
5415.039062	-46.499401
5416.015625	-46.124786
5416.992188	-46.646484
5417.968750	-47.666687
5418.945312	-47.278072
5419.921875	-47.154640
5420.898438	-47.050117
5421.875000	-47.044292
5422.851562	-47.075123
5423.828125	-47.200451
5424.804688	-46.461651
5425.781250	-46.547310
5426.757812	-46.801239
5427.734375	-47.264294
5428.710938	-47.301212
5429.687500	-47.320923
5430.664062	-47.476349
5431.640625	-47.758453
5432.617188	-47.048840
5433.593750	-47.488415
5434.570312	-46.895176
5435.546875	-46.844337
5436.523438	-47.207294
5437.500000	-46.892239
5438.476562	-47.426956
5439.453125	-47.248264
5440.429688	-45.819817
5441.406250	-46.848461
5442.382812	-46.671604
5443.359375	-47.639706
5444.335938	-46.454880
5445.312500	-46.043312
5446.289062	-46.935249
5447.265625	-46.958393
5448.242188	-47.148331
5449.218750	-47.303490
5450.195312	-46.426109
5451.171875	-47.706753
5452.148438	-47.386944
5453.125000	-46.429825
5454.101562	-49.575325
5455.078125	-47.756313
5456.054688	-48.141598
5457.031250	-46.619324
5458.007812	-46.239296
5458.984375	-47.381557
5459.960938	-46.876053
5460.937500	-47.695271
5461.914062	-47.324684
5462.890625	-46.066799
5463.867188	-46.573307
5464.843750	-47.875935
5465.820312	-46.985104
5466.796875	-46.554874
5467.773438	-47.098164
5468.750000	-45.982658
5469.726562	-46.970016
5470.703125	-46.894646
5471.679688	-48.478664
5472.656250	-46.666698
5473.632812	-45.764359
5474.609375	-47.541546
5475.585938	-47.255131
5476.562500	-46.680470
5477.539062	-46.716209
5478.515625	-46.013527
5479.492188	-46.828918
5480.468750	-47.839935
5481.445312	-46.062660
5482.421875	-46.431519
5483.398438	-47.347157
5484.375000	-46.830597
5485.351562	-46.168243
5486.328125	-46.956844
5487.304688	-47.263866
5488.281250	-47.851425
5489.257812	-47.599747
5490.234375	-47.178913
5491.210938	-46.148537
5492.187500	-46.510448
5493.164062	-46.325882
5494.140625	-46.477898
5495.117188	-47.279881
5496.093750	-47.425671
5497.070312	-47.247746
5498.046875	-46.106853
5499.023438	-45.856983
5500.000000	-47.464619
5500.976562	-47.102974
5501.953125	-45.848465
5502.929688	-47.042179
5503.906250	-47.985306
5504.882812	-47.935429
5505.859375	-46.641979
5506.835938	-46.835545
5507.812500	-48.195805
5508.789062	-47.505768
5509.765625	-46.508156
5510.742188	-47.092266
5511.718750	-46.756874
5512.695312	-46.674732
5513.671875	-47.641491
5514.648438	-47.228817
5515.625000	-46.414257
5516.601562	-45.564590
5517.578125	-48.215443
5518.554688	-46.805149
5519.531250	-46.292431
5520.507812	-47.749348
5521.484375	-46.683350
5522.460938	-47.292156
5523.437500	-46.101696
5524.414062	-45.970669
5525.390625	-46.910522
5526.367188	-46.110176
5527.343750	-46.211479
5528.320312	-46.800678
5529.296875	-46.429234
5530.273438	-46.992352
5531.250000	-47.720238
5532.226562	-47.795475
5533.203125	-48.674011
5534.179688	-46.432835
5535.156250	-47.110176
5536.132812	-46.845566
5537.109375	-47.486279
5538.085938	-46.647530
5539.062500	-47.149364
5540.039062	-45.491024
5541.015625	-47.012009
5541.992188	-46.208481
5542.968750	-47.514626
5543.945312	-47.009228
5544.921875	-47.153152
5545.898438	-47.200005
5546.875000	-48.168621
5547.851562	-47.094776
5548.828125	-46.439095
5549.804688	-46.956745
5550.781250	-46.416672
5551.757812	-47.545464
5552.734375	-47.650360
5553.710938	-46.716846
5554.687500	-45.792030
5555.664062	-47.156746
5556.640625	-46.567577
5557.617188	-46.718136
5558.593750	-46.312630
5559.570312	-47.935482
5560.546875	-47.073490
5561.523438	-46.808990
5562.500000	-47.632305
5563.476562	-47.690899
5564.453125	-46.741558
5565.429688	-46.704269
5566.406250	-47.163914
5567.382812	-46.242851
5568.359375	-46.693192
5569.335938	-46.849403
5570.312500	-48.665001
5571.289062	-47.638023
5572.265625	-47.412510
5573.242188	-46.244968
5574.218750	-46.703365
5575.195312	-46.346039
5576.171875	-47.531086
5577.148438	-48.364765
5578.125000	-47.732025
5579.101562	-47.339127
5580.078125	-47.131668
5581.054688	-46.402103
5582.031250	-46.549137
5583.007812	-47.226276
5583.984375	-47.155441
5584.960938	-46.392010
5585.937500	-46.723854
5586.914062	-46.729248
5587.890625	-47.293884
5588.867188	-46.693138
5589.843750	-47.325874
5590.820312	-46.032944
5591.796875	-47.458256
5592.773438	-46.632740
5593.750000	-46.980198
5594.726562	-46.241600
5595.703125	-46.710121
5596.679688	-47.662544
5597.656250	-47.342869
5598.632812	-47.364990
5599.609375	-46.618580
5600.585938	-46.409668
5601.562500	-46.004028
5602.539062	-48.035248
5603.515625	-48.896149
5604.492188	-47.822430
5605.468750	-46.016354
5606.445312	-47.282200
5607.421875	-47.959087
5608.398438	-46.013340
5609.375000	-46.240356
5610.351562	-46.615570
5611.328125	-47.073189
5612.304688	-48.103355
5613.281250	-46.584644
5614.257812	-45.322712
5615.234375	-45.430218
5616.210938	-46.769478
5617.187500	-48.004490
5618.164062	-47.869514
5619.140625	-47.104733
5620.117188	-46.691826
5621.093750	-46.919376
5622.070312	-47.059925
5623.046875	-47.038052
5624.023438	-45.917854
5625.000000	-48.771328
5625.976562	-46.477886
5626.953125	-46.085472
5627.929688	-48.051701
5628.906250	-46.841629
5629.882812	-46.662857
5630.859375	-47.264885
5631.835938	-47.200409
5632.812500	-48.666744
5633.789062	-47.549477
5634.765625	-46.143726
5635.742188	-47.361877
5636.718750	-47.249954
5637.695312	-48.408997
5638.671875	-47.220318
5639.648438	-46.506996
5640.625000	-46.656040
5641.601562	-45.815895
5642.578125	-46.710350
5643.554688	-47.101955
5644.531250	-46.204533
5645.507812	-46.276329
5646.484375	-47.043900
5647.460938	-47.232410
5648.437500	-46.427570
5649.414062	-47.731426
5650.390625	-47.370579
5651.367188	-46.710976
5652.343750	-46.379475
5653.320312	-46.373425
5654.296875	-46.667244
5655.273438	-46.786812
5656.250000	-46.660091
5657.226562	-45.633469
5658.203125	-46.941368
5659.179688	-46.672112
5660.156250	-46.321712
5661.132812	-47.545589
5662.109375	-48.586452
5663.085938	-47.529289
5664.062500	-47.220528
5665.039062	-47.946190
5666.015625	-46.656395
5666.992188	-46.873585
5667.968750	-47.039436
5668.945312	-47.121590
5669.921875	-46.313011
5670.898438	-46.632301
5671.875000	-48.176792
5672.851562	-47.590706
5673.828125	-47.464035
5674.804688	-47.736397
5675.781250	-47.452076
5676.757812	-46.256985
5677.734375	-48.153194
5678.710938	-46.544464
5679.687500	-47.236675
5680.664062	-47.370422
5681.640625	-47.289368
5682.617188	-46.879848
5683.593750	-46.425068
5684.570312	-46.958721
5685.546875	-46.148647
5686.523438	-47.271332
5687.500000	-46.584194
5688.476562	-47.712044
5689.453125	-46.954517
5690.429688	-46.192604
5691.406250	-47.169006
5692.382812	-46.992443
5693.359375	-47.721310
5694.335938	-46.495419
5695.312500	-46.407253
5696.289062	-46.734013
5697.265625	-47.348251
5698.242188	-48.560890
5699.218750	-46.160667
5700.195312	-45.429192
5701.171875	-46.426548
5702.148438	-47.626247
5703.125000	-47.187145
5704.101562	-46.395332
5705.078125	-47.509975
5706.054688	-49.157379
5707.031250	-47.798626
5708.007812	-45.840515
5708.984375	-46.755405
5709.960938	-46.519711
5710.937500	-46.373901
5711.914062	-47.889675
5712.890625	-46.321323
5713.867188	-46.957336
5714.843750	-45.542526
5715.820312	-46.314419
5716.796875	-45.974499
5717.773438	-47.684147
5718.750000	-46.691273
5719.726562	-47.310299
5720.703125	-47.923203
5721.679688	-45.596066
5722.656250	-47.878529
5723.632812	-46.523808
5724.609375	-46.322788
5725.585938	-45.371208
5726.562500	-47.376049
5727.539062	-47.541763
5728.515625	-47.599064
5729.492188	-46.498905
5730.468750	-46.847485
5731.445312	-46.714909
5732.421875	-47.133797
5733.398438	-46.301556
5734.375000	-47.750999
5735.351562	-47.897087
5736.328125	-46.724972
5737.304688	-47.229973
5738.281250	-47.709446
5739.257812	-47.455959
5740.234375	-45.946308
5741.210938	-46.696781
5742.187500	-48.089302
5743.164062	-46.642227
5744.140625	-45.003151
5745.117188	-47.640961
5746.093750	-45.958519
5747.070312	-47.327911
5748.046875	-46.057320
5749.023438	-46.455940
5750.000000	-46.094265
5750.976562	-46.686630
5751.953125	-46.982174
5752.929688	-46.857353
5753.906250	-48.100876
5754.882812	-46.281563
5755.859375	-46.185860
5756.835938	-45.847740
5757.812500	-47.571354
5758.789062	-47.400188
5759.765625	-46.147964
5760.742188	-47.804516
5761.718750	-46.478035
5762.695312	-46.618267
5763.671875	-46.707481
5764.648438	-46.989544
5765.625000	-46.950527
5766.601562	-48.606289
5767.578125	-47.142056
5768.554688	-46.493740
5769.531250	-46.624588
5770.507812	-46.593895
5771.484375	-49.466812
5772.460938	-47.529972
5773.437500	-48.049347
5774.414062	-47.030441
5775.390625	-48.146992
5776.367188	-46.482670
5777.343750	-47.828007
5778.320312	-47.574760
5779.296875	-47.214993
5780.273438	-47.777218
5781.250000	-47.844711
5782.226562	-47.072891
5783.203125	-45.827381
5784.179688	-45.479336
5785.156250	-46.375492
5786.132812	-46.214565
5787.109375	-46.839516
5788.085938	-47.464256
5789.062500	-46.425892
5790.039062	-46.874550
5791.015625	-47.205929
5791.992188	-46.708458
5792.968750	-46.504642
5793.945312	-47.193451
5794.921875	-46.851971
5795.898438	-47.585007
5796.875000	-47.090176
5797.851562	-46.475552
5798.828125	-47.668079
5799.804688	-47.632969
5800.781250	-46.349819
5801.757812	-47.011215
5802.734375	-47.028099
5803.710938	-46.726421
5804.687500	-47.703320
5805.664062	-47.926716
5806.640625	-46.423229
5807.617188	-48.153366
5808.593750	-45.952534
5809.570312	-46.811008
5810.546875	-47.640293
5811.523438	-47.141037
5812.500000	-47.045155
5813.476562	-46.789986
5814.453125	-47.076031
5815.429688	-46.845806
5816.406250	-47.993164
5817.382812	-46.427132
5818.359375	-46.539009
5819.335938	-46.357788
5820.312500	-46.362080
5821.289062	-48.789131
5822.265625	-48.679157
5823.242188	-47.288631
5824.218750	-45.892593
5825.195312	-47.641926
5826.171875	-46.701187
5827.148438	-46.589390
5828.125000	-46.994579
5829.101562	-47.532604
5830.078125	-46.253952
5831.054688	-45.520199
5832.031250	-47.369537
5833.007812	-46.984501
5833.984375	-46.767757
5834.960938	-48.621326
5835.937500	-48.367931
5836.914062	-47.443684
5837.890625	-46.917740
5838.867188	-45.998283
5839.843750	-45.977238
5840.820312	-46.753742
5841.796875	-47.120266
5842.773438	-46.991089
5843.750000	-45.979820
5844.726562	-45.216850
5845.703125	-48.262009
5846.679688	-46.523201
5847.656250	-46.709297
5848.632812	-46.910534
5849.609375	-46.632362
5850.585938	-47.551426
5851.562500	-47.980400
5852.539062	-47.414600
5853.515625	-47.138100
5854.492188	-45.218655
5855.468750	-47.318371
5856.445312	-47.308907
5857.421875	-48.289642
5858.398438	-47.351807
5859.375000	-48.569286
5860.351562	-46.437195
5861.328125	-47.233459
5862.304688	-47.343071
5863.281250	-46.085613
5864.257812	-47.760002
5865.234375	-46.569374
5866.210938	-47.092743
5867.187500	-47.418247
5868.164062	-46.454868
5869.140625	-47.789356
5870.117188	-45.968060
5871.093750	-48.206764
5872.070312	-47.185734
5873.046875	-47.917637
5874.023438	-48.107765
5875.000000	-47.308414
5875.976562	-46.812828
5876.953125	-48.086048
5877.929688	-46.412262
5878.906250	-46.664242
5879.882812	-46.938961
5880.859375	-46.797619
5881.835938	-47.920216
5882.812500	-46.758354
5883.789062	-46.589195
5884.765625	-47.116821
5885.742188	-46.375080
5886.718750	-46.578091
5887.695312	-47.712769
5888.671875	-46.937771
5889.648438	-45.613274
5890.625000	-46.555862
5891.601562	-47.308167
5892.578125	-46.903301
5893.554688	-47.239330
5894.531250	-47.960907
5895.507812	-46.751316
5896.484375	-47.014526
5897.460938	-47.879940
5898.437500	-47.864468
5899.414062	-45.719097
5900.390625	-48.152615
5901.367188	-46.673866
5902.343750	-48.487968
5903.320312	-47.953720
5904.296875	-46.444668
5905.273438	-46.509277
5906.250000	-46.828979
5907.226562	-47.083355
5908.203125	-47.167068
5909.179688	-47.084419
5910.156250	-47.153038
5911.132812	-47.873432
5912.109375	-46.113335
5913.085938	-46.631908
5914.062500	-46.757439
5915.039062	-48.716366
5916.015625	-47.154732
5916.992188	-46.437328
5917.968750	-45.816448
5918.945312	-46.965538
5919.921875	-45.339577
5920.898438	-46.339180
5921.875000	-47.084881
5922.851562	-47.565681
5923.828125	-47.523148
5924.804688	-47.476158
5925.781250	-47.153385
5926.757812	-47.285027
5927.734375	-47.742260
5928.710938	-47.225231
5929.687500	-47.739143
5930.664062	-48.443676
5931.640625	-46.705151
5932.617188	-46.192387
5933.593750	-47.146141
5934.570312	-47.146393
5935.546875	-46.712296
5936.523438	-47.293785
5937.500000	-46.534237
5938.476562	-46.747879
5939.453125	-46.706512
5940.429688	-44.849171
5941.406250	-46.640404
5942.382812	-46.944489
5943.359375	-47.120552
5944.335938	-45.491783
5945.312500	-46.437794
5946.289062	-46.772682
5947.265625	-46.703007
5948.242188	-47.111191
5949.218750	-46.593342
5950.195312	-47.001347
5951.171875	-46.731876
5952.148438	-46.235207
5953.125000	-47.653595
5954.101562	-47.251198
5955.078125	-46.238384
5956.054688	-45.498310
5957.031250	-46.141243
5958.007812	-47.460728
5958.984375	-47.749649
5959.960938	-45.818192
5960.937500	-46.559849
5961.914062	-46.476307
5962.890625	-46.598862
5963.867188	-47.404343
5964.843750	-47.857182
5965.820312	-46.900330
5966.796875	-45.440197
5967.773438	-46.357388
5968.750000	-48.595184
5969.726562	-46.791264
5970.703125	-47.575214
5971.679688	-46.366253
5972.656250	-46.934116
5973.632812	-47.108532
5974.609375	-46.144981
5975.585938	-47.026539
5976.562500	-47.870750
5977.539062	-46.706528
5978.515625	-47.409687
5979.492188	-47.574913
5980.468750	-48.444561
5981.445312	-46.924095
5982.421875	-46.306789
5983.398438	-46.685379
5984.375000	-46.514893
5985.351562	-46.916695
5986.328125	-46.563034
5987.304688	-47.253826
5988.281250	-46.738140
5989.257812	-47.254612
5990.234375	-47.388386
5991.210938	-47.715115
5992.187500	-46.270294
5993.164062	-46.775780
5994.140625	-46.271202
5995.117188	-48.143246
5996.093750	-47.207890
5997.070312	-46.611088
5998.046875	-48.041210
5999.023438	-48.454533
6000.000000	-47.383442
6000.976562	-47.538609
6001.953125	-46.886814
6002.929688	-46.013817
6003.906250	-47.175308
6004.882812	-48.107639
6005.859375	-48.219753
6006.835938	-46.220554
6007.812500	-47.276974
6008.789062	-46.427292
6009.765625	-46.493587
6010.742188	-47.479218
6011.718750	-47.656864
6012.695312	-45.615330
6013.671875	-48.298981
6014.648438	-47.710617
6015.625000	-45.910748
6016.601562	-46.848881
6017.578125	-47.484222
6018.554688	-47.050117
6019.531250	-45.881863
6020.507812	-47.399117
6021.484375	-46.121841
6022.460938	-46.934853
6023.437500	-47.525276
6024.414062	-46.817909
6025.390625	-48.197105
6026.367188	-46.885155
6027.343750	-47.512627
6028.320312	-46.823158
6029.296875	-46.785965
6030.273438	-46.733208
6031.250000	-46.897099
6032.226562	-46.682240
6033.203125	-47.749840
6034.179688	-46.930904
6035.156250	-46.521938
6036.132812	-46.888508
6037.109375	-47.666256
6038.085938	-47.393021
6039.062500	-47.181110
6040.039062	-47.056396
6041.015625	-47.028408
6041.992188	-45.791111
6042.968750	-45.939125
6043.945312	-46.288582
6044.921875	-46.432606
6045.898438	-46.736477
6046.875000	-46.735085
6047.851562	-47.230293
6048.828125	-46.689243
6049.804688	-46.696339
6050.781250	-46.052097
6051.757812	-47.106796
6052.734375	-46.857796
6053.710938	-47.183468
6054.687500	-47.005959
6055.664062	-46.127579
6056.640625	-47.607952
6057.617188	-47.164642
6058.593750	-46.635574
6059.570312	-46.679707
6060.546875	-46.183041
6061.523438	-45.409027
6062.500000	-46.125160
6063.476562	-46.889420
6064.453125	-45.681450
6065.429688	-46.156559
6066.406250	-46.572231
6067.382812	-46.707668
6068.359375	-46.736019
6069.335938	-46.935528
6070.312500	-46.176521
6071.289062	-46.933105
6072.265625	-47.412674
6073.242188	-47.141727
6074.218750	-46.114780
6075.195312	-48.225151
6076.171875	-46.894348
6077.148438	-47.048714
6078.125000	-46.623806
6079.101562	-45.802261
6080.078125	-47.348244
6081.054688	-46.277325
6082.031250	-47.493000
6083.007812	-46.014515
6083.984375	-45.684490
6084.960938	-46.137333
6085.937500	-47.734921
6086.914062	-45.966888
6087.890625	-46.324551
6088.867188	-46.618828
6089.843750	-46.235947
6090.820312	-47.875572
6091.796875	-46.779457
6092.773438	-47.113625
6093.750000	-47.027359
6094.726562	-46.895844
6095.703125	-46.761242
6096.679688	-45.610989
6097.656250	-46.701057
6098.632812	-46.589031
6099.609375	-48.031723
6100.585938	-47.328583
6101.562500	-48.104374
6102.539062	-46.494576
6103.515625	-46.460567
6104.492188	-46.023155
6105.468750	-47.918308
6106.445312	-48.075668
6107.421875	-46.093880
6108.398438	-46.116596
6109.375000	-47.488903
6110.351562	-47.445072
6111.328125	-45.951630
6112.304688	-46.492527
6113.281250	-47.108162
6114.257812	-47.063339
6115.234375	-47.323101
6116.210938	-46.685955
6117.187500	-45.488617
6118.164062	-46.029484
6119.140625	-46.706894
6120.117188	-46.314507
6121.093750	-47.201469
6122.070312	-45.723587
6123.046875	-45.953522
6124.023438	-46.338982
6125.000000	-47.659718
6125.976562	-46.781570
6126.953125	-47.096909
6127.929688	-47.033432
6128.906250	-47.471325
6129.882812	-45.666161
6130.859375	-46.031994
6131.835938	-46.401508
6132.812500	-47.366055
6133.789062	-47.332062
6134.765625	-47.534180
6135.742188	-47.345131
6136.718750	-47.245632
6137.695312	-46.563686
6138.671875	-47.192825
6139.648438	-46.534424
6140.625000	-47.143356
6141.601562	-48.184296
6142.578125	-47.306992
6143.554688	-46.834747
6144.531250	-46.740288
6145.507812	-46.972721
6146.484375	-46.016716
6147.460938	-47.236446
6148.437500	-46.956188
6149.414062	-46.595104
6150.390625	-46.494339
6151.367188	-46.645710
6152.343750	-47.409393
6153.320312	-47.227539
6154.296875	-47.865124
6155.273438	-47.131687
6156.250000	-47.661213
6157.226562	-47.891174
6158.203125	-47.238819
6159.179688	-47.482357
6160.156250	-47.373497
6161.132812	-46.952847
6162.109375	-46.352440
6163.085938	-46.297516
6164.062500	-47.183952
6165.039062	-47.434753
6166.015625	-46.577110
6166.992188	-46.777435
6167.968750	-45.309822
6168.945312	-46.050789
6169.921875	-47.504242
6170.898438	-47.867676
6171.875000	-47.279667
6172.851562	-46.974098
6173.828125	-46.105579
6174.804688	-46.240524
6175.781250	-46.761959
6176.757812	-45.825298
6177.734375	-45.951118
6178.710938	-46.563080
6179.687500	-47.165737
6180.664062	-47.446667
6181.640625	-47.201847
6182.617188	-46.497295
6183.593750	-47.928379
6184.570312	-47.193188
6185.546875	-45.579605
6186.523438	-47.117382
6187.500000	-46.428551
6188.476562	-47.959229
6189.453125	-46.927238
6190.429688	-47.158646
6191.406250	-45.814217
6192.382812	-48.168877
6193.359375	-45.742657
6194.335938	-46.087437
6195.312500	-46.739708
6196.289062	-46.172554
6197.265625	-47.801430
6198.242188	-46.712315
6199.218750	-46.568558
6200.195312	-46.258026
6201.171875	-47.354279
6202.148438	-46.619476
6203.125000	-47.150826
6204.101562	-46.052582
6205.078125	-47.087593
6206.054688	-47.365711
6207.031250	-46.507317
6208.007812	-47.321114
6208.984375	-47.037128
6209.960938	-47.078102
6210.937500	-47.339447
6211.914062	-47.200130
6212.890625	-46.088295
6213.867188	-47.299248
6214.843750	-46.478668
6215.820312	-46.662659
6216.796875	-47.588978
6217.773438	-48.419167
6218.750000	-47.795464
6219.726562	-47.700150
6220.703125	-46.672073
6221.679688	-45.695442
6222.656250	-47.016632
6223.632812	-48.422085
6224.609375	-48.223560
6225.585938	-47.229649
6226.562500	-47.166210
6227.539062	-47.282482
6228.515625	-46.423237
6229.492188	-46.696178
6230.468750	-46.937508
6231.445312	-46.661747
6232.421875	-47.726719
6233.398438	-46.581207
6234.375000	-46.692501
6235.351562	-46.051781
6236.328125	-46.411263
6237.304688	-47.975239
6238.281250	-47.123322
6239.257812	-45.735844
6240.234375	-46.162094
6241.210938	-46.411839
6242.187500	-45.903614
6243.164062	-47.764748
6244.140625	-46.233189
6245.117188	-46.879612
6246.093750	-46.861469
6247.070312	-47.380322
6248.046875	-46.264389
6249.023438	-46.872162
6250.000000	-46.550354
6250.976562	-47.717262
6251.953125	-48.470196
6252.929688	-48.449516
6253.906250	-45.828880
6254.882812	-47.122887
6255.859375	-46.506420
6256.835938	-47.061874
6257.812500	-48.105721
6258.789062	-47.045753
6259.765625	-47.226986
6260.742188	-45.897419
6261.718750	-46.541523
6262.695312	-46.838108
6263.671875	-46.743187
6264.648438	-46.665337
6265.625000	-47.445866
6266.601562	-46.341011
6267.578125	-46.257763
6268.554688	-46.751354
6269.531250	-47.440121
6270.507812	-46.718609
6271.484375	-46.121677
6272.460938	-47.088730
6273.437500	-46.497940
6274.414062	-46.565414
6275.390625	-46.372288
6276.367188	-46.089767
6277.343750	-46.638680
6278.320312	-46.292259
6279.296875	-46.614895
6280.273438	-46.713474
6281.250000	-47.331596
6282.226562	-47.593861
6283.203125	-46.568317
6284.179688	-46.502666
6285.156250	-47.008015
6286.132812	-47.786732
6287.109375	-47.242355
6288.085938	-46.459957
6289.062500	-46.968685
6290.039062	-46.509907
6291.015625	-47.438190
6291.992188	-46.421688
6292.968750	-47.342163
6293.945312	-46.415466
6294.921875	-47.119236
6295.898438	-47.226990
6296.875000	-46.231827
6297.851562	-44.882469
6298.828125	-45.983662
6299.804688	-46.981190
6300.781250	-46.358440
6301.757812	-46.285770
6302.734375	-47.676037
6303.710938	-46.108242
6304.687500	-46.275345
6305.664062	-46.637032
6306.640625	-46.636864
6307.617188	-45.679001
6308.593750	-48.733341
6309.570312	-46.882767
6310.546875	-47.028187
6311.523438	-47.230095
6312.500000	-46.372261
6313.476562	-46.935898
6314.453125	-48.046402
6315.429688	-49.129795
6316.406250	-46.845932
6317.382812	-47.611931
6318.359375	-47.881718
6319.335938	-48.695217
6320.312500	-48.619892
6321.289062	-48.059681
6322.265625	-47.557938
6323.242188	-46.968521
6324.218750	-47.744991
6325.195312	-46.840176
6326.171875	-48.987358
6327.148438	-48.341545
6328.125000	-47.785004
6329.101562	-46.388168
6330.078125	-47.113495
6331.054688	-46.370510
6332.031250	-46.389572
6333.007812	-45.720219
6333.984375	-46.639206
6334.960938	-46.858677
6335.937500	-46.594757
6336.914062	-46.576260
6337.890625	-46.711391
6338.867188	-45.861538
6339.843750	-45.688995
6340.820312	-46.651169
6341.796875	-46.544277
6342.773438	-46.616486
6343.750000	-47.887241
6344.726562	-47.585529
6345.703125	-46.831783
6346.679688	-46.221210
6347.656250	-47.230213
6348.632812	-45.855171
6349.609375	-47.363010
6350.585938	-46.736568
6351.562500	-48.158806
6352.539062	-48.140430
6353.515625	-47.705006
6354.492188	-47.343578
6355.468750	-46.690884
6356.445312	-47.649845
6357.421875	-46.869762
6358.398438	-45.891182
6359.375000	-46.816963
6360.351562	-46.003075
6361.328125	-47.362156
6362.304688	-46.227222
6363.281250	-46.123394
6364.257812	-47.972023
6365.234375	-47.396496
6366.210938	-47.253685
6367.187500	-47.962200
6368.164062	-47.748268
6369.140625	-48.344074
6370.117188	-48.101654
6371.093750	-46.781921
6372.070312	-46.743862
6373.046875	-48.366249
6374.023438	-48.474506
6375.000000	-46.861492
6375.976562	-46.553860
6376.953125	-45.959827
6377.929688	-46.557941
6378.906250	-46.237431
6379.882812	-47.323975
6380.859375	-47.209991
6381.835938	-46.611912
6382.812500	-46.947014
6383.789062	-47.332340
6384.765625	-47.665108
6385.742188	-46.696136
6386.718750	-47.684723
6387.695312	-47.303749
6388.671875	-46.125809
6389.648438	-47.360657
6390.625000	-48.951244
6391.601562	-46.508034
6392.578125	-47.761551
6393.554688	-47.408405
6394.531250	-47.236103
6395.507812	-48.476250
6396.484375	-45.165131
6397.460938	-48.495567
6398.437500	-46.626820
6399.414062	-46.785774
6400.390625	-46.716217
6401.367188	-47.015602
6402.343750	-46.541744
6403.320312	-46.448181
6404.296875	-47.661663
6405.273438	-46.986511
6406.250000	-47.623383
6407.226562	-47.381771
6408.203125	-47.763775
6409.179688	-48.120213
6410.156250	-47.802914
6411.132812	-48.087368
6412.109375	-46.949718
6413.085938	-45.991081
6414.062500	-46.578720
6415.039062	-46.768211
6416.015625	-46.740456
6416.992188	-48.081799
6417.968750	-46.736469
6418.945312	-47.112591
6419.921875	-46.810753
6420.898438	-47.037846
6421.875000	-47.286839
6422.851562	-47.544010
6423.828125	-47.261486
6424.804688	-47.482437
6425.781250	-47.694904
6426.757812	-47.257088
6427.734375	-46.842800
6428.710938	-46.683918
6429.687500	-47.808033
6430.664062	-46.309723
6431.640625	-46.810001
6432.617188	-46.100292
6433.593750	-48.146435
6434.570312	-46.423206
6435.546875	-47.279842
6436.523438	-47.213169
6437.500000	-45.900696
6438.476562	-46.361904
6439.453125	-46.088760
6440.429688	-46.814503
6441.406250	-46.928024
6442.382812	-46.657814
6443.359375	-45.697094
6444.335938	-46.705750
6445.312500	-46.568966
6446.289062	-47.437206
6447.265625	-46.598640
6448.242188	-46.568203
6449.218750	-48.267532
6450.195312	-48.489792
6451.171875	-47.266602
6452.148438	-47.859169
6453.125000	-47.990585
6454.101562	-47.088947
6455.078125	-47.423485
6456.054688	-47.975201
6457.031250	-47.411598
6458.007812	-47.107533
6458.984375	-44.920643
6459.960938	-48.322754
6460.937500	-46.686138
6461.914062	-47.673828
6462.890625	-46.883957
6463.867188	-47.223160
6464.843750	-46.701801
6465.820312	-45.442852
6466.796875	-46.276344
6467.773438	-46.633682
6468.750000	-45.941364
6469.726562	-46.248215
6470.703125	-45.746140
6471.679688	-46.251289
6472.656250	-46.644291
6473.632812	-47.237061
6474.609375	-46.592010
6475.585938	-47.052746
6476.562500	-46.604729
6477.539062	-47.748287
6478.515625	-46.511257
6479.492188	-45.988647
6480.468750	-46.281712
6481.445312	-45.666592
6482.421875	-46.349243
6483.398438	-46.662010
6484.375000	-46.618664
6485.351562	-47.801418
6486.328125	-46.595875
6487.304688	-47.591465
6488.281250	-46.264767
6489.257812	-45.872299
6490.234375	-45.859104
6491.210938	-47.419273
6492.187500	-46.347401
6493.164062	-46.709599
6494.140625	-45.740982
6495.117188	-46.614559
6496.093750	-47.836201
6497.070312	-46.234081
6498.046875	-46.313877
6499.023438	-45.051369
6500.000000	-46.825020
6500.976562	-45.810532
6501.953125	-47.482906
6502.929688	-47.042370
6503.906250	-46.525932
6504.882812	-46.997509
6505.859375	-47.868984
6506.835938	-46.283897
6507.812500	-46.949219
6508.789062	-46.970016
6509.765625	-46.612190
6510.742188	-46.896160
6511.718750	-46.080662
6512.695312	-46.069157
6513.671875	-47.389931
6514.648438	-47.126549
6515.625000	-46.740807
6516.601562	-47.351929
6517.578125	-46.776848
6518.554688	-47.223457
6519.531250	-48.884747
6520.507812	-47.288174
6521.484375	-46.189308
6522.460938	-46.301537
6523.437500	-45.642178
6524.414062	-45.795742
6525.390625	-47.052345
6526.367188	-48.099155
6527.343750	-46.319271
6528.320312	-46.813110
6529.296875	-46.152813
6530.273438	-47.904308
6531.250000	-46.091396
6532.226562	-46.887779
6533.203125	-47.561333
6534.179688	-46.117516
6535.156250	-47.070110
6536.132812	-48.786530
6537.109375	-47.621643
6538.085938	-45.459820
6539.062500	-47.093822
6540.039062	-46.316414
6541.015625	-46.805416
6541.992188	-46.897129
6542.968750	-48.106049
6543.945312	-48.136513
6544.921875	-47.961113
6545.898438	-47.708405
6546.875000	-46.856258
6547.851562	-46.462681
6548.828125	-46.406185
6549.804688	-46.890640
6550.781250	-46.534416
6551.757812	-47.278019
6552.734375	-46.520329
6553.710938	-47.469749
6554.687500	-47.099453
6555.664062	-47.202564
6556.640625	-48.255817
6557.617188	-47.734680
6558.593750	-47.178440
6559.570312	-47.569363
6560.546875	-47.286839
6561.523438	-46.463478
6562.500000	-47.255417
6563.476562	-47.235523
6564.453125	-47.829960
6565.429688	-47.781662
6566.406250	-46.268265
6567.382812	-47.220879
6568.359375	-46.192242
6569.335938	-48.484482
6570.312500	-47.342293
6571.289062	-46.538750
6572.265625	-46.614285
6573.242188	-48.184387
6574.218750	-46.705818
6575.195312	-48.007477
6576.171875	-46.639099
6577.148438	-46.920601
6578.125000	-47.981319
6579.101562	-46.861900
6580.078125	-47.484077
6581.054688	-47.186375
6582.031250	-47.332550
6583.007812	-48.115025
6583.984375	-47.078232
6584.960938	-46.862961
6585.937500	-45.977959
6586.914062	-47.448414
6587.890625	-47.528835
6588.867188	-47.709946
6589.843750	-45.814026
6590.820312	-47.100716
6591.796875	-47.043125
6592.773438	-46.694427
6593.750000	-46.382576
6594.726562	-46.768860
6595.703125	-45.502922
6596.679688	-46.589027
6597.656250	-47.851414
6598.632812	-47.330654
6599.609375	-46.946640
6600.585938	-47.591137
6601.562500	-47.088165
6602.539062	-48.015114
6603.515625	-46.413635
6604.492188	-47.788368
6605.468750	-46.426495
6606.445312	-46.837856
6607.421875	-47.168507
6608.398438	-47.016903
6609.375000	-47.613346
6610.351562	-46.655003
6611.328125	-47.076126
6612.304688	-48.184177
6613.281250	-45.654461
6614.257812	-46.819370
6615.234375	-46.554626
6616.210938	-46.205318
6617.187500	-47.908115
6618.164062	-47.520576
6619.140625	-47.788303
6620.117188	-46.839550
6621.093750	-45.932739
6622.070312	-47.501823
6623.046875	-46.424923
6624.023438	-47.707592
6625.000000	-46.572433
6625.976562	-46.680092
6626.953125	-47.102211
6627.929688	-47.472023
6628.906250	-46.861542
6629.882812	-47.135937
6630.859375	-46.394135
6631.835938	-47.300667
6632.812500	-46.433186
6633.789062	-47.695793
6634.765625	-46.205296
6635.742188	-46.969162
6636.718750	-47.113892
6637.695312	-46.582439
6638.671875	-46.620274
6639.648438	-47.407505
6640.625000	-46.716400
6641.601562	-46.979870
6642.578125	-47.596516
6643.554688	-47.788155
6644.531250	-45.585648
6645.507812	-47.362591
6646.484375	-46.016884
6647.460938	-46.636005
6648.437500	-46.704311
6649.414062	-46.129368
6650.390625	-45.641178
6651.367188	-46.479851
6652.343750	-46.363785
6653.320312	-46.311932
6654.296875	-46.165127
6655.273438	-47.619133
6656.250000	-46.809807
6657.226562	-47.616680
6658.203125	-46.215534
6659.179688	-46.579586
6660.156250	-48.308769
6661.132812	-46.112892
6662.109375	-47.739136
6663.085938	-48.191280
6664.062500	-47.322388
6665.039062	-47.398212
6666.015625	-48.108944
6666.992188	-47.514572
6667.968750	-47.474915
6668.945312	-47.802597
6669.921875	-46.808140
6670.898438	-46.748138
6671.875000	-47.530190
6672.851562	-48.296822
6673.828125	-47.886684
6674.804688	-47.523449
6675.781250	-47.120964
6676.757812	-46.784351
6677.734375	-46.795826
6678.710938	-46.438400
6679.687500	-46.920208
6680.664062	-46.541058
6681.640625	-47.175922
6682.617188	-46.272263
6683.593750	-47.263283
6684.570312	-48.340164
6685.546875	-47.540874
6686.523438	-46.452446
6687.500000	-46.351730
6688.476562	-46.010399
6689.453125	-46.321598
6690.429688	-47.725449
6691.406250	-47.573639
6692.382812	-46.651455
6693.359375	-46.548519
6694.335938	-47.504459
6695.312500	-47.492165
6696.289062	-46.323219
6697.265625	-46.172684
6698.242188	-47.332146
6699.218750	-47.123631
6700.195312	-46.743027
6701.171875	-47.193340
6702.148438	-46.642029
6703.125000	-47.442257
6704.101562	-46.864880
6705.078125	-46.099728
6706.054688	-46.795952
6707.031250	-47.728718
6708.007812	-46.360508
6708.984375	-47.095741
6709.960938	-46.132847
6710.937500	-46.744236
6711.914062	-47.223026
6712.890625	-47.177910
6713.867188	-47.358746
6714.843750	-46.841206
6715.820312	-46.864857
6716.796875	-46.493858
6717.773438	-47.393810
6718.750000	-47.580250
6719.726562	-47.533760
6720.703125	-47.474491
6721.679688	-46.558933
6722.656250	-47.557384
6723.632812	-46.892925
6724.609375	-46.237652
6725.585938	-47.725372
6726.562500	-48.195992
6727.539062	-45.267628
6728.515625	-47.102234
6729.492188	-47.324970
6730.468750	-47.338917
6731.445312	-47.945148
6732.421875	-46.468533
6733.398438	-47.136177
6734.375000	-47.469383
6735.351562	-46.804184
6736.328125	-46.838058
6737.304688	-46.417637
6738.281250	-47.100826
6739.257812	-46.477604
6740.234375	-47.699089
6741.210938	-47.224644
6742.187500	-46.879173
6743.164062	-46.677776
6744.140625	-46.315098
6745.117188	-46.714737
6746.093750	-46.908714
6747.070312	-46.125156
6748.046875	-48.412666
6749.023438	-47.142281
6750.000000	-46.227036
6750.976562	-45.913773
6751.953125	-47.767117
6752.929688	-46.838520
6753.906250	-47.918354
6754.882812	-47.080971
6755.859375	-45.940571
6756.835938	-46.752914
6757.812500	-47.771423
6758.789062	-47.080921
6759.765625	-47.143997
6760.742188	-47.243992
6761.718750	-47.050846
6762.695312	-47.091709
6763.671875	-47.323711
6764.648438	-47.115612
6765.625000	-46.249489
6766.601562	-45.921772
6767.578125	-46.183899
6768.554688	-46.652428
6769.531250	-46.754948
6770.507812	-46.994888
6771.484375	-47.250473
6772.460938	-48.241768
6773.437500	-47.391087
6774.414062	-47.237846
6775.390625	-47.254017
6776.367188	-47.487980
6777.343750	-46.446384
6778.320312	-47.573368
6779.296875	-46.539909
6780.273438	-48.170540
6781.250000	-47.917049
6782.226562	-47.758518
6783.203125	-47.366817
6784.179688	-47.681080
6785.156250	-46.347153
6786.132812	-46.485832
6787.109375	-48.077251
6788.085938	-46.653431
6789.062500	-47.506775
6790.039062	-46.586735
6791.015625	-46.436749
6791.992188	-47.010311
6792.968750	-48.109646
6793.945312	-47.248497
6794.921875	-47.654072
6795.898438	-45.749397
6796.875000	-46.073811
6797.851562	-46.435612
6798.828125	-46.357208
6799.804688	-47.213455
6800.781250	-46.502529
6801.757812	-47.301907
6802.734375	-46.519852
6803.710938	-45.865246
6804.687500	-47.203041
6805.664062	-46.634743
6806.640625	-45.880798
6807.617188	-48.624237
6808.593750	-47.204945
6809.570312	-46.242432
6810.546875	-46.270763
6811.523438	-47.996845
6812.500000	-46.666035
6813.476562	-46.557388
6814.453125	-47.342949
6815.429688	-48.005379
6816.406250	-46.451569
6817.382812	-46.571980
6818.359375	-47.162388
6819.335938	-46.791470
6820.312500	-46.885170
6821.289062	-46.990044
6822.265625	-46.741680
6823.242188	-46.376110
6824.218750	-47.259853
6825.195312	-46.520016
6826.171875	-46.577919
6827.148438	-46.614399
6828.125000	-47.472725
6829.101562	-46.628460
6830.078125	-47.267860
6831.054688	-46.470062
6832.031250	-46.170036
6833.007812	-47.340893
6833.984375	-46.274826
6834.960938	-47.156796
6835.937500	-45.769115
6836.914062	-46.742779
6837.890625	-47.965519
6838.867188	-47.223911
6839.843750	-47.620117
6840.820312	-47.764896
6841.796875	-45.788338
6842.773438	-47.426403
6843.750000	-47.118187
6844.726562	-47.992462
6845.703125	-48.313786
6846.679688	-47.212181
6847.656250	-47.432693
6848.632812	-46.435638
6849.609375	-46.430576
6850.585938	-46.481693
6851.562500	-46.970963
6852.539062	-47.446888
6853.515625	-47.382748
6854.492188	-47.622051
6855.468750	-46.925652
6856.445312	-46.451244
6857.421875	-46.781002
6858.398438	-47.865044
6859.375000	-46.562714
6860.351562	-46.713890
6861.328125	-45.202614
6862.304688	-47.672516
6863.281250	-47.240215
6864.257812	-46.716461
6865.234375	-47.196213
6866.210938	-47.082733
6867.187500	-47.006638
6868.164062	-47.398560
6869.140625	-47.347973
6870.117188	-47.643394
6871.093750	-48.043480
6872.070312	-47.658386
6873.046875	-47.641342
6874.023438	-45.997894
6875.000000	-46.837883
6875.976562	-48.402447
6876.953125	-48.731022
6877.929688	-46.612133
6878.906250	-45.699291
6879.882812	-46.964634
6880.859375	-46.475746
6881.835938	-45.446217
6882.812500	-46.880474
6883.789062	-46.286949
6884.765625	-46.805786
6885.742188	-46.454998
6886.718750	-47.712887
6887.695312	-47.225834
6888.671875	-46.708717
6889.648438	-45.927219
6890.625000	-47.781265
6891.601562	-46.964764
6892.578125	-46.885464
6893.554688	-47.515537
6894.531250	-46.819508
6895.507812	-47.602070
6896.484375	-47.596554
6897.460938	-46.830536
6898.437500	-47.153606
6899.414062	-46.209278
6900.390625	-46.571167
6901.367188	-46.243782
6902.343750	-46.565304
6903.320312	-46.864506
6904.296875	-45.855343
6905.273438	-46.544147
6906.250000	-47.293377
6907.226562	-47.608120
6908.203125	-45.469559
6909.179688	-46.736954
6910.156250	-46.677822
6911.132812	-46.258453
6912.109375	-47.096077
6913.085938	-47.417290
6914.062500	-47.660919
6915.039062	-46.650650
6916.015625	-47.071526
6916.992188	-46.213852
6917.968750	-47.019295
6918.945312	-46.604160
6919.921875	-46.795444
6920.898438	-46.808975
6921.875000	-46.793663
6922.851562	-46.509262
6923.828125	-47.658653
6924.804688	-46.745918
6925.781250	-46.283062
6926.757812	-47.020432
6927.734375	-45.418468
6928.710938	-46.821079
6929.687500	-48.323112
6930.664062	-47.133343
6931.640625	-46.416355
6932.617188	-46.446983
6933.593750	-47.138229
6934.570312	-46.898590
6935.546875	-47.134537
6936.523438	-47.953163
6937.500000	-47.245342
6938.476562	-46.544933
6939.453125	-47.027012
6940.429688	-46.304001
6941.406250	-46.701782
6942.382812	-47.758854
6943.359375	-45.770340
6944.335938	-47.210461
6945.312500	-47.859730
6946.289062	-47.095943
6947.265625	-47.631096
6948.242188	-46.695518
6949.218750	-47.446796
6950.195312	-46.883976
6951.171875	-46.366077
6952.148438	-47.812801
6953.125000	-47.315208
6954.101562	-46.633728
6955.078125	-47.254440
6956.054688	-46.676537
6957.031250	-46.415688
6958.007812	-46.775475
6958.984375	-46.760605
6959.960938	-47.247005
6960.937500	-46.915367
6961.914062	-47.857250
6962.890625	-47.058533
6963.867188	-47.441277
6964.843750	-47.309753
6965.820312	-47.642200
6966.796875	-46.387020
6967.773438	-46.313046
6968.750000	-46.788338
6969.726562	-46.876823
6970.703125	-46.995045
6971.679688	-47.303143
6972.656250	-46.659855
6973.632812	-47.298042
6974.609375	-46.685825
6975.585938	-46.924007
6976.562500	-47.275856
6977.539062	-46.807407
6978.515625	-47.940334
6979.492188	-46.765549
6980.468750	-46.592522
6981.445312	-47.692596
6982.421875	-46.509224
6983.398438	-47.738480
6984.375000	-46.724934
6985.351562	-47.258968
6986.328125	-47.195656
6987.304688	-46.828770
6988.281250	-46.605961
6989.257812	-46.745632
6990.234375	-46.734371
6991.210938	-46.217892
6992.187500	-46.883671
6993.164062	-47.689747
6994.140625	-47.005035
6995.117188	-45.902386
6996.093750	-47.396801
6997.070312	-46.827148
6998.046875	-47.015335
6999.023438	-46.219177
7000.000000	-46.764782
7000.976562	-46.922913
7001.953125	-47.586143
7002.929688	-46.648388
7003.906250	-46.443645
7004.882812	-46.250481
7005.859375	-47.022495
7006.835938	-47.741619
7007.812500	-47.028790
7008.789062	-47.439117
7009.765625	-47.559082
7010.742188	-46.577118
7011.718750	-46.862091
7012.695312	-47.471016
7013.671875	-47.416779
7014.648438	-45.279152
7015.625000	-46.689003
7016.601562	-47.586262
7017.578125	-47.046429
7018.554688	-48.124565
7019.531250	-46.743698
7020.507812	-47.007660
7021.484375	-47.156429
7022.460938	-47.278114
7023.437500	-46.746944
7024.414062	-46.008728
7025.390625	-47.552803
7026.367188	-46.232094
7027.343750	-46.745216
7028.320312	-46.083836
7029.296875	-46.399139
7030.273438	-47.729603
7031.250000	-47.470810
7032.226562	-46.629219
7033.203125	-47.496387
7034.179688	-46.618298
7035.156250	-46.407185
7036.132812	-48.524776
7037.109375	-47.212124
7038.085938	-47.181404
7039.062500	-46.486916
7040.039062	-46.794010
7041.015625	-47.375278
7041.992188	-46.789024
7042.968750	-47.004311
7043.945312	-46.902000
7044.921875	-48.463081
7045.898438	-45.937733
7046.875000	-46.123295
7047.851562	-48.531181
7048.828125	-47.404823
7049.804688	-46.467213
7050.781250	-46.830242
7051.757812	-47.593102
7052.734375	-47.117176
7053.710938	-46.669369
7054.687500	-46.434021
7055.664062	-45.978104
7056.640625	-46.394753
7057.617188	-46.965714
7058.593750	-47.839943
7059.570312	-46.974373
7060.546875	-46.754238
7061.523438	-47.098988
7062.500000	-46.486557
7063.476562	-46.380329
7064.453125	-47.673088
7065.429688	-48.083797
7066.406250	-46.399582
7067.382812	-46.983032
7068.359375	-46.990437
7069.335938	-47.366386
7070.312500	-45.921597
7071.289062	-47.361225
7072.265625	-46.576431
7073.242188	-46.446705
7074.218750	-46.275089
7075.195312	-47.938477
7076.171875	-46.467434
7077.148438	-47.438137
7078.125000	-47.759300
7079.101562	-47.550617
7080.078125	-47.108181
7081.054688	-47.932373
7082.031250	-48.318623
7083.007812	-47.772121
7083.984375	-46.993580
7084.960938	-47.704811
7085.937500	-46.633667
7086.914062	-46.904488
7087.890625	-47.168068
7088.867188	-46.110023
7089.843750	-47.276855
7090.820312	-47.701874
7091.796875	-46.357189
7092.773438	-46.710587
7093.750000	-47.298363
7094.726562	-46.620296
7095.703125	-46.919949
7096.679688	-47.128551
7097.656250	-46.145828
7098.632812	-46.804680
7099.609375	-45.837860
7100.585938	-46.883739
7101.562500	-46.045959
7102.539062	-46.784985
7103.515625	-47.365772
7104.492188	-47.615051
7105.468750	-47.530567
7106.445312	-47.469738
7107.421875	-47.428436
7108.398438	-48.142189
7109.375000	-47.643887
7110.351562	-47.281799
7111.328125	-47.848457
7112.304688	-46.990505
7113.281250	-47.739895
7114.257812	-47.031242
7115.234375	-47.564629
7116.210938	-47.131905
7117.187500	-48.698174
7118.164062	-45.470276
7119.140625	-46.403999
7120.117188	-48.397182
7121.093750	-46.923954
7122.070312	-47.633087
7123.046875	-47.660957
7124.023438	-48.076069
7125.000000	-45.971191
7125.976562	-47.277718
7126.953125	-46.519085
7127.929688	-46.926689
7128.906250	-47.441849
7129.882812	-47.233322
7130.859375	-46.200691
7131.835938	-46.819275
7132.812500	-47.257111
7133.789062	-47.797043
7134.765625	-47.134979
7135.742188	-47.775558
7136.718750	-46.634445
7137.695312	-47.300362
7138.671875	-47.707703
7139.648438	-47.861504
7140.625000	-47.092396
7141.601562	-47.960579
7142.578125	-48.744129
7143.554688	-46.550240
7144.531250	-45.827465
7145.507812	-47.079697
7146.484375	-47.216454
7147.460938	-46.034676
7148.437500	-47.523079
7149.414062	-47.631382
7150.390625	-46.525902
7151.367188	-47.117966
7152.343750	-45.727833
7153.320312	-46.638813
7154.296875	-46.953632
7155.273438	-47.013031
7156.250000	-47.928864
7157.226562	-47.409042
7158.203125	-46.906063
7159.179688	-47.600327
7160.156250	-46.880150
7161.132812	-47.200424
7162.109375	-47.519634
7163.085938	-46.648785
7164.062500	-46.480247
7165.039062	-46.677673
7166.015625	-45.712818
7166.992188	-47.578033
7167.968750	-46.837315
7168.945312	-46.742531
7169.921875	-47.828949
7170.898438	-46.946869
7171.875000	-46.995766
7172.851562	-47.475906
7173.828125	-46.993279
7174.804688	-47.162601
7175.781250	-46.331226
7176.757812	-46.693199
7177.734375	-47.506725
7178.710938	-46.574028
7179.687500	-47.003975
7180.664062	-47.727882
7181.640625	-46.181137
7182.617188	-46.888493
7183.593750	-46.470478
7184.570312	-46.852135
7185.546875	-46.658848
7186.523438	-47.146282
7187.500000	-46.539421
7188.476562	-46.411579
7189.453125	-46.952026
7190.429688	-45.724972
7191.406250	-46.371639
7192.382812	-47.206749
7193.359375	-45.596653
7194.335938	-46.093716
7195.312500	-46.582691
7196.289062	-47.014896
7197.265625	-46.638542
7198.242188	-46.953945
7199.218750	-48.036076
7200.195312	-46.725857
7201.171875	-46.540878
7202.148438	-46.563217
7203.125000	-46.318493
7204.101562	-47.864506
7205.078125	-46.814541
7206.054688	-46.851227
7207.031250	-47.605751
7208.007812	-47.252586
7208.984375	-47.467983
7209.960938	-47.219524
7210.937500	-47.963371
7211.914062	-47.518402
7212.890625	-46.447891
7213.867188	-47.259052
7214.843750	-46.698223
7215.820312	-46.912834
7216.796875	-46.706169
7217.773438	-47.885056
7218.750000	-45.962582
7219.726562	-46.888268
7220.703125	-47.022469
7221.679688	-46.434273
7222.656250	-46.838726
7223.632812	-47.988079
7224.609375	-46.666946
7225.585938	-46.952988
7226.562500	-48.847279
7227.539062	-47.209404
7228.515625	-48.103973
7229.492188	-46.426174
7230.468750	-47.297440
7231.445312	-48.480316
7232.421875	-47.582317
7233.398438	-46.753220
7234.375000	-46.122738
7235.351562	-46.523750
7236.328125	-46.077694
7237.304688	-46.746399
7238.281250	-45.869213
7239.257812	-47.098003
7240.234375	-46.806499
7241.210938	-47.257278
7242.187500	-47.676136
7243.164062	-46.976902
7244.140625	-47.100910
7245.117188	-47.425045
7246.093750	-47.341702
7247.070312	-46.310604
7248.046875	-46.769756
7249.023438	-47.358410
7250.000000	-46.731380
7250.976562	-46.504341
7251.953125	-46.142651
7252.929688	-46.427830
7253.906250	-45.661781
7254.882812	-46.692154
7255.859375	-48.199028
7256.835938	-46.115856
7257.812500	-46.192364
7258.789062	-46.713257
7259.765625	-46.403126
7260.742188	-47.630825
7261.718750	-46.648876
7262.695312	-47.168030
7263.671875	-46.041515
7264.648438	-47.022324
7265.625000	-45.982800
7266.601562	-45.824203
7267.578125	-47.371437
7268.554688	-46.263920
7269.531250	-47.126732
7270.507812	-48.570305
7271.484375	-46.503586
7272.460938	-46.040508
7273.437500	-47.322403
7274.414062	-48.916969
7275.390625	-46.783958
7276.367188	-46.167789
7277.343750	-46.576355
7278.320312	-47.432598
7279.296875	-46.839741
7280.273438	-47.099277
7281.250000	-45.762856
7282.226562	-46.825676
7283.203125	-47.788986
7284.179688	-48.181580
7285.156250	-47.294456
7286.132812	-47.668064
7287.109375	-47.029644
7288.085938	-46.938202
7289.062500	-47.141556
7290.039062	-47.595707
7291.015625	-47.103741
7291.992188	-46.778439
7292.968750	-47.799885
7293.945312	-48.186550
7294.921875	-47.918118
7295.898438	-47.741497
7296.875000	-47.652058
7297.851562	-46.854988
7298.828125	-46.700893
7299.804688	-47.410244
7300.781250	-46.164677
7301.757812	-45.804844
7302.734375	-46.861835
7303.710938	-47.463825
7304.687500	-45.259670
7305.664062	-47.568531
7306.640625	-48.292992
7307.617188	-45.309353
7308.593750	-46.820747
7309.570312	-48.350986
7310.546875	-46.848545
7311.523438	-47.108631
7312.500000	-46.081696
7313.476562	-46.073540
7314.453125	-46.497231
7315.429688	-46.736996
7316.406250	-45.793995
7317.382812	-46.784107
7318.359375	-46.956490
7319.335938	-46.955040
7320.312500	-48.173763
7321.289062	-46.784668
7322.265625	-45.898472
7323.242188	-47.848999
7324.218750	-47.358192
7325.195312	-46.703323
7326.171875	-46.518429
7327.148438	-46.238487
7328.125000	-46.791542
7329.101562	-48.420567
7330.078125	-46.593376
7331.054688	-48.128513
7332.031250	-47.100883
7333.007812	-47.423069
7333.984375	-47.123703
7334.960938	-45.513920
7335.937500	-47.374977
7336.914062	-45.856369
7337.890625	-45.144859
7338.867188	-44.713039
7339.843750	-45.859638
7340.820312	-47.489674
7341.796875	-46.498173
7342.773438	-47.144905
7343.750000	-47.322384
7344.726562	-47.327763
7345.703125	-46.911633
7346.679688	-46.605751
7347.656250	-47.272251
7348.632812	-46.497826
7349.609375	-46.262840
7350.585938	-48.589443
7351.562500	-46.998760
7352.539062	-46.889366
7353.515625	-46.510738
7354.492188	-47.711025
7355.468750	-45.144028
7356.445312	-47.279270
7357.421875	-45.764194
7358.398438	-46.160709
7359.375000	-47.394798
7360.351562	-46.432999
7361.328125	-48.392906
7362.304688	-46.660538
7363.281250	-47.410355
7364.257812	-46.914013
7365.234375	-46.937588
7366.210938	-45.912300
7367.187500	-46.345608
7368.164062	-47.560974
7369.140625	-47.154808
7370.117188	-45.753906
7371.093750	-46.635277
7372.070312	-46.368793
7373.046875	-46.285038
7374.023438	-46.291428
7375.000000	-47.257637
7375.976562	-45.573338
7376.953125	-45.924393
7377.929688	-46.673882
7378.906250	-47.340950
7379.882812	-47.718517
7380.859375	-46.577129
7381.835938	-46.225807
7382.812500	-48.382912
7383.789062	-46.583923
7384.765625	-46.501068
7385.742188	-46.122318
7386.718750	-48.110283
7387.695312	-47.986126
7388.671875	-47.808342
7389.648438	-46.716816
7390.625000	-47.313400
7391.601562	-46.958153
7392.578125	-47.191429
7393.554688	-47.239178
7394.531250	-47.286282
7395.507812	-47.532890
7396.484375	-47.514126
7397.460938	-46.470856
7398.437500	-45.936916
7399.414062	-47.275723
7400.390625	-46.808430
7401.367188	-47.050014
7402.343750	-46.930740
7403.320312	-46.902332
7404.296875	-46.602879
7405.273438	-47.265625
7406.250000	-47.957096
7407.226562	-45.713245
7408.203125	-45.804512
7409.179688	-48.922283
7410.156250	-47.791725
7411.132812	-46.472412
7412.109375	-46.863037
7413.085938	-47.609772
7414.062500	-47.656879
7415.039062	-47.447765
7416.015625	-46.978134
7416.992188	-47.473320
7417.968750	-46.048233
7418.945312	-46.923485
7419.921875	-46.755283
7420.898438	-48.808998
7421.875000	-47.149265
7422.851562	-45.879044
7423.828125	-47.107361
7424.804688	-47.222908
7425.781250	-47.436474
7426.757812	-46.730476
7427.734375	-47.773132
7428.710938	-47.878334
7429.687500	-46.628853
7430.664062	-46.932816
7431.640625	-46.410778
7432.617188	-46.980759
7433.593750	-47.244694
7434.570312	-47.193192
7435.546875	-47.439556
7436.523438	-47.195114
7437.500000	-47.796669
7438.476562	-46.244694
7439.453125	-47.017582
7440.429688	-47.130619
7441.406250	-48.081089
7442.382812	-46.724430
7443.359375	-47.215504
7444.335938	-47.912006
7445.312500	-46.394096
7446.289062	-47.084370
7447.265625	-45.652462
7448.242188	-47.510456
7449.218750	-46.522423
7450.195312	-47.368275
7451.171875	-48.006332
7452.148438	-47.649265
7453.125000	-48.189014
7454.101562	-46.601017
7455.078125	-47.576900
7456.054688	-46.606720
7457.031250	-47.037636
7458.007812	-47.641216
7458.984375	-47.034256
7459.960938	-46.213032
7460.937500	-47.054501
7461.914062	-45.630878
7462.890625	-46.270763
7463.867188	-46.612701
7464.843750	-46.884323
7465.820312	-46.308365
7466.796875	-46.812157
7467.773438	-47.212811
7468.750000	-47.752319
7469.726562	-48.102501
7470.703125	-47.290108
7471.679688	-47.397968
7472.656250	-47.230045
7473.632812	-45.772446
7474.609375	-45.982254
7475.585938	-47.553116
7476.562500	-48.152561
7477.539062	-46.933422
7478.515625	-47.493450
7479.492188	-47.619137
7480.468750	-46.943325
7481.445312	-47.177444
7482.421875	-45.784996
7483.398438	-47.372959
7484.375000	-47.004578
7485.351562	-46.639336
7486.328125	-46.704491
7487.304688	-45.232288
7488.281250	-47.116795
7489.257812	-46.654449
7490.234375	-47.919292
7491.210938	-46.011597
7492.187500	-46.467644
7493.164062	-46.336544
7494.140625	-47.167557
7495.117188	-45.993694
7496.093750	-46.674599
7497.070312	-46.988369
7498.046875	-48.324490
7499.023438	-46.850674
7500.000000	-46.222698
7500.976562	-47.724998
7501.953125	-47.044491
7502.929688	-47.741146
7503.906250	-47.186493
7504.882812	-46.707809
7505.859375	-45.839516
7506.835938	-46.919838
7507.812500	-47.556305
7508.789062	-46.787708
7509.765625	-45.731232
7510.742188	-47.275318
7511.718750	-47.064117
7512.695312	-45.931095
7513.671875	-47.397205
7514.648438	-48.167889
7515.625000	-46.732716
7516.601562	-47.449326
7517.578125	-46.843418
7518.554688	-47.829453
7519.531250	-46.744781
7520.507812	-45.556564
7521.484375	-47.778015
7522.460938	-47.021458
7523.437500	-46.814602
7524.414062	-46.208870
7525.390625	-46.425793
7526.367188	-46.209454
7527.343750	-46.289661
7528.320312	-46.936695
7529.296875	-46.471653
7530.273438	-46.921124
7531.250000	-47.277344
7532.226562	-47.947510
7533.203125	-46.676353
7534.179688	-47.703396
7535.156250	-45.639786
7536.132812	-46.987400
7537.109375	-47.373798
7538.085938	-46.405727
7539.062500	-46.241909
7540.039062	-48.998314
7541.015625	-46.206097
7541.992188	-46.245720
7542.968750	-47.201672
7543.945312	-48.092453
7544.921875	-47.164619
7545.898438	-47.135612
7546.875000	-47.047318
7547.851562	-47.076218
7548.828125	-45.948154
7549.804688	-46.827267
7550.781250	-46.661373
7551.757812	-45.836781
7552.734375	-45.531433
7553.710938	-45.496017
7554.687500	-48.180775
7555.664062	-47.821301
7556.640625	-48.298325
7557.617188	-47.010384
7558.593750	-47.192757
7559.570312	-47.839508
7560.546875	-47.691002
7561.523438	-48.164391
7562.500000	-46.593838
7563.476562	-48.672897
7564.453125	-47.343262
7565.429688	-46.759212
7566.406250	-47.097538
7567.382812	-47.103455
7568.359375	-47.329182
7569.335938	-47.436268
7570.312500	-47.177891
7571.289062	-46.577190
7572.265625	-47.226803
7573.242188	-46.234623
7574.218750	-46.234131
7575.195312	-46.091972
7576.171875	-46.818401
7577.148438	-46.713577
7578.125000	-46.191830
7579.101562	-48.317890
7580.078125	-46.599319
7581.054688	-47.204063
7582.031250	-46.086540
7583.007812	-46.126575
7583.984375	-45.379272
7584.960938	-46.496799
7585.937500	-47.957924
7586.914062	-46.679874
7587.890625	-46.926895
7588.867188	-47.339314
7589.843750	-46.218758
7590.820312	-47.245991
7591.796875	-46.901077
7592.773438	-46.916569
7593.750000	-46.701488
7594.726562	-45.699421
7595.703125	-46.524921
7596.679688	-47.181042
7597.656250	-46.518501
7598.632812	-47.237885
7599.609375	-47.513340
7600.585938	-47.599033
7601.562500	-47.965256
7602.539062	-47.580696
7603.515625	-48.419518
7604.492188	-46.100735
7605.468750	-47.904625
7606.445312	-46.681965
7607.421875	-46.956894
7608.398438	-45.916451
7609.375000	-47.441738
7610.351562	-45.279182
7611.328125	-46.932384
7612.304688	-46.899639
7613.281250	-46.773804
7614.257812	-47.333103
7615.234375	-47.073460
7616.210938	-47.240768
7617.187500	-46.676247
7618.164062	-46.781597
7619.140625	-46.537621
7620.117188	-48.060387
7621.093750	-47.190533
7622.070312	-47.004082
7623.046875	-45.939114
7624.023438	-46.583363
7625.000000	-46.165382
7625.976562	-46.364853
7626.953125	-47.209255
7627.929688	-47.160473
7628.906250	-47.595760
7629.882812	-47.184532
7630.859375	-46.907673
7631.835938	-47.543686
7632.812500	-46.089874
7633.789062	-46.327190
7634.765625	-46.522053
7635.742188	-46.479477
7636.718750	-47.825451
7637.695312	-48.518211
7638.671875	-46.093357
7639.648438	-45.777271
7640.625000	-47.038548
7641.601562	-46.416370
7642.578125	-46.874962
7643.554688	-47.480492
7644.531250	-46.496864
7645.507812	-47.042744
7646.484375	-46.939800
7647.460938	-46.672791
7648.437500	-46.182476
7649.414062	-46.912182
7650.390625	-47.456192
7651.367188	-47.616978
7652.343750	-47.813133
7653.320312	-46.822296
7654.296875	-46.387123
7655.273438	-46.912205
7656.250000	-47.126934
7657.226562	-46.695408
7658.203125	-47.236317
7659.179688	-47.572685
7660.156250	-47.631878
7661.132812	-47.032253
7662.109375	-46.814594
7663.085938	-46.678856
7664.062500	-46.697067
7665.039062	-46.562698
7666.015625	-46.684582
7666.992188	-46.995121
7667.968750	-47.473698
7668.945312	-47.405537
7669.921875	-46.337421
7670.898438	-46.800213
7671.875000	-46.495609
7672.851562	-47.260708
7673.828125	-47.879955
7674.804688	-46.300220
7675.781250	-46.787029
7676.757812	-47.087109
7677.734375	-47.755642
7678.710938	-46.166206
7679.687500	-47.502369
7680.664062	-46.729427
7681.640625	-47.453903
7682.617188	-47.666271
7683.593750	-45.863003
7684.570312	-46.614662
7685.546875	-46.258270
7686.523438	-47.789696
7687.500000	-47.178200
7688.476562	-47.530598
7689.453125	-48.351696
7690.429688	-47.565296
7691.406250	-47.909111
7692.382812	-45.464951
7693.359375	-46.260891
7694.335938	-46.350334
7695.312500	-46.852936
7696.289062	-46.083065
7697.265625	-45.556141
7698.242188	-47.277027
7699.218750	-47.255264
7700.195312	-46.437569
7701.171875	-46.615608
7702.148438	-45.954041
7703.125000	-47.074303
7704.101562	-47.028503
7705.078125	-48.276646
7706.054688	-47.585472
7707.031250	-46.082733
7708.007812	-46.560745
7708.984375	-47.232475
7709.960938	-47.625408
7710.937500	-46.646667
7711.914062	-47.686684
7712.890625	-47.011101
7713.867188	-49.053699
7714.843750	-46.915993
7715.820312	-45.989891
7716.796875	-46.025196
7717.773438	-46.197998
7718.750000	-46.936600
7719.726562	-46.941277
7720.703125	-47.544472
7721.679688	-46.896870
7722.656250	-46.786407
7723.632812	-47.247021
7724.609375	-46.653976
7725.585938	-48.180042
7726.562500	-47.072906
7727.539062	-47.617275
7728.515625	-47.356232
7729.492188	-47.556633
7730.468750	-47.612324
7731.445312	-46.539890
7732.421875	-47.199532
7733.398438	-47.381214
7734.375000	-47.577976
7735.351562	-46.659744
7736.328125	-46.621449
7737.304688	-47.551754
7738.281250	-47.204399
7739.257812	-47.104641
7740.234375	-46.659782
7741.210938	-45.768543
7742.187500	-46.893105
7743.164062	-47.523731
7744.140625	-47.690762
7745.117188	-49.241920
7746.093750	-47.534698
7747.070312	-46.637653
7748.046875	-46.808140
7749.023438	-46.195148
7750.000000	-46.199085
7750.976562	-45.737171
7751.953125	-46.234322
7752.929688	-46.758633
7753.906250	-46.442410
7754.882812	-47.039349
7755.859375	-46.460064
7756.835938	-46.796009
7757.812500	-47.617733
7758.789062	-47.181713
7759.765625	-47.651852
7760.742188	-47.517231
7761.718750	-47.371071
7762.695312	-46.422497
7763.671875	-46.503830
7764.648438	-46.537457
7765.625000	-48.024750
7766.601562	-46.762634
7767.578125	-46.672348
7768.554688	-46.258301
7769.531250	-47.452675
7770.507812	-47.042908
7771.484375	-46.809486
7772.460938	-46.870934
7773.437500	-46.987957
7774.414062	-46.078548
7775.390625	-47.262753
7776.367188	-47.737682
7777.343750	-47.860901
7778.320312	-45.754211
7779.296875	-47.901562
7780.273438	-45.975948
7781.250000	-46.995430
7782.226562	-47.397053
7783.203125	-46.481792
7784.179688	-46.712303
7785.156250	-47.001186
7786.132812	-46.563660
7787.109375	-47.005093
7788.085938	-46.900337
7789.062500	-47.724899
7790.039062	-46.933628
7791.015625	-47.631908
7791.992188	-47.027763
7792.968750	-47.193565
7793.945312	-47.956547
7794.921875	-46.885674
7795.898438	-47.417866
7796.875000	-46.604134
7797.851562	-45.681633
7798.828125	-46.239529
7799.804688	-48.109173
7800.781250	-47.894459
7801.757812	-46.984406
7802.734375	-47.667759
7803.710938	-46.206623
7804.687500	-46.960850
7805.664062	-47.496517
7806.640625	-47.186172
7807.617188	-46.412376
7808.593750	-47.768917
7809.570312	-46.415154
7810.546875	-47.657326
7811.523438	-47.090031
7812.500000	-46.660645
7813.476562	-45.602306
7814.453125	-46.163712
7815.429688	-47.613132
7816.406250	-47.217930
7817.382812	-47.429344
7818.359375	-46.624359
7819.335938	-46.721291
7820.312500	-47.753944
7821.289062	-47.275448
7822.265625	-46.770443
7823.242188	-47.677700
7824.218750	-47.687206
7825.195312	-46.296642
7826.171875	-47.771393
7827.148438	-48.633976
7828.125000	-47.334137
7829.101562	-48.154617
7830.078125	-47.169437
7831.054688	-47.944378
7832.031250	-46.729687
7833.007812	-47.645660
7833.984375	-45.984680
7834.960938	-45.686111
7835.937500	-47.534233
7836.914062	-47.585854
7837.890625	-46.141296
7838.867188	-46.495102
7839.843750	-46.551868
7840.820312	-46.441273
7841.796875	-47.726696
7842.773438	-47.200508
7843.750000	-46.454468
7844.726562	-47.497772
7845.703125	-46.330193
7846.679688	-46.721325
7847.656250	-46.613567
7848.632812	-46.862934
7849.609375	-48.267418
7850.585938	-47.049725
7851.562500	-46.889175
7852.539062	-46.530685
7853.515625	-47.211864
7854.492188	-47.214237
7855.468750	-47.216732
7856.445312	-46.039448
7857.421875	-47.272503
7858.398438	-47.444637
7859.375000	-47.394638
7860.351562	-46.350594
7861.328125	-45.989754
7862.304688	-45.600517
7863.281250	-47.087986
7864.257812	-47.444538
7865.234375	-47.767574
7866.210938	-47.710449
7867.187500	-47.667744
7868.164062	-47.274067
7869.140625	-46.769234
7870.117188	-46.883667
7871.093750	-47.055305
7872.070312	-46.845215
7873.046875	-47.879253
7874.023438	-48.127594
7875.000000	-47.793098
7875.976562	-46.791576
7876.953125	-47.128475
7877.929688	-46.837490
7878.906250	-47.288673
7879.882812	-47.145409
7880.859375	-46.804363
7881.835938	-46.097778
7882.812500	-47.423267
7883.789062	-46.894981
7884.765625	-46.937515
7885.742188	-46.061996
7886.718750	-46.665436
7887.695312	-47.397602
7888.671875	-47.387051
7889.648438	-48.281059
7890.625000	-46.191864
7891.601562	-46.600948
7892.578125	-46.481346
7893.554688	-47.295593
7894.531250	-47.738457
7895.507812	-46.194817
7896.484375	-45.607830
7897.460938	-46.392960
7898.437500	-48.005421
7899.414062	-48.194454
7900.390625	-47.284004
7901.367188	-46.789631
7902.343750	-49.116573
7903.320312	-47.399689
7904.296875	-46.363373
7905.273438	-46.989017
7906.250000	-45.587719
7907.226562	-48.054592
7908.203125	-47.723251
7909.179688	-47.839516
7910.156250	-46.913734
7911.132812	-47.387142
7912.109375	-46.269867
7913.085938	-46.938305
7914.062500	-47.738518
7915.039062	-46.485168
7916.015625	-45.943359
7916.992188	-46.214783
7917.968750	-47.585888
7918.945312	-47.183086
7919.921875	-46.733261
7920.898438	-47.152798
7921.875000	-47.473415
7922.851562	-47.612492
7923.828125	-48.155708
7924.804688	-47.943645
7925.781250	-47.029026
7926.757812	-47.377476
7927.734375	-47.659607
7928.710938	-46.691677
7929.687500	-47.137184
7930.664062	-46.984383
7931.640625	-46.849003
7932.617188	-46.790852
7933.593750	-46.273529
7934.570312	-46.389740
7935.546875	-46.825577
7936.523438	-47.037010
7937.500000	-46.733429
7938.476562	-47.216003
7939.453125	-47.663326
7940.429688	-46.285828
7941.406250	-46.959114
7942.382812	-46.257839
7943.359375	-45.481628
7944.335938	-46.894333
7945.312500	-46.766205
7946.289062	-47.643513
7947.265625	-48.801357
7948.242188	-46.964924
7949.218750	-46.969601
7950.195312	-47.396786
7951.171875	-47.894375
7952.148438	-46.994350
7953.125000	-47.472889
7954.101562	-48.180492
7955.078125	-46.440983
7956.054688	-48.217327
7957.031250	-47.402779
7958.007812	-46.614418
7958.984375	-47.042698
7959.960938	-46.697113
7960.937500	-46.949635
7961.914062	-48.147125
7962.890625	-46.430763
7963.867188	-45.678356
7964.843750	-47.130886
7965.820312	-47.683544
7966.796875	-47.217888
7967.773438	-46.382454
7968.750000	-47.214272
7969.726562	-46.710567
7970.703125	-47.898659
7971.679688	-47.312492
7972.656250	-45.831863
7973.632812	-46.614456
7974.609375	-46.484833
7975.585938	-47.209579
7976.562500	-47.866463
7977.539062	-46.297882
7978.515625	-47.371437
7979.492188	-46.743702
7980.468750	-46.173935
7981.445312	-47.267323
7982.421875	-47.434975
7983.398438	-47.782490
7984.375000	-47.360252
7985.351562	-47.101757
7986.328125	-46.272045
7987.304688	-47.089973
7988.281250	-47.023968
7989.257812	-46.163040
7990.234375	-47.163673
7991.210938	-46.187634
7992.187500	-46.109650
7993.164062	-47.426895
7994.140625	-45.905727
7995.117188	-45.658318
7996.093750	-46.706997
7997.070312	-46.873249
7998.046875	-48.598431
7999.023438	-46.611027
