Frequency (Hz)	Level (dB)
0.976562	-87.900642
1.953125	-87.913269
2.929688	-87.903641
3.906250	-87.371490
4.882812	-87.735886
5.859375	-87.362106
6.835938	-86.093788
7.812500	-86.923485
8.789062	-87.193382
9.765625	-85.715767
10.742188	-82.945213
11.718750	-82.778549
12.695312	-81.888206
13.671875	-80.696243
14.648438	-82.094971
15.625000	-80.340195
16.601562	-80.777916
17.578125	-80.312958
18.554688	-79.003349
19.531250	-79.034286
20.507812	-78.395836
21.484375	-75.218163
22.460938	-75.487579
23.437500	-73.935677
24.414062	-75.191887
25.390625	-75.989616
26.367188	-75.008110
27.343750	-73.076309
28.320312	-72.056351
29.296875	-72.993050
30.273438	-72.747566
31.250000	-72.720604
32.226562	-72.547920
33.203125	-72.772697
34.179688	-73.260201
35.156250	-72.094925
36.132812	-72.433029
37.109375	-71.717445
38.085938	-72.266212
39.062500	-71.243629
40.039062	-71.055450
41.015625	-70.760391
41.992188	-70.372101
42.968750	-67.538849
43.945312	-68.392960
44.921875	-69.567429
45.898438	-67.513687
46.875000	-67.550095
47.851562	-68.923042
48.828125	-67.722176
49.804688	-67.085655
50.781250	-65.808350
51.757812	-66.268661
52.734375	-65.955048
53.710938	-64.585564
54.687500	-64.162888
55.664062	-63.940254
56.640625	-63.399689
57.617188	-62.440723
58.593750	-62.080227
59.570312	-62.869186
60.546875	-62.133083
61.523438	-61.818775
62.500000	-60.210369
63.476562	-60.065529
64.453125	-63.129093
65.429688	-64.833221
66.406250	-64.507050
67.382812	-64.151649
68.359375	-65.651146
69.335938	-65.185471
70.312500	-60.706345
71.289062	-60.867653
72.265625	-62.022739
73.242188	-60.599953
74.218750	-59.748432
75.195312	-60.429298
76.171875	-61.484280
77.148438	-64.571297
78.125000	-63.761879
79.101562	-64.257301
80.078125	-65.187958
81.054688	-63.743004
82.031250	-64.816704
83.007812	-63.041519
83.984375	-60.602974
84.960938	-58.625523
85.937500	-58.754116
86.914062	-58.842258
87.890625	-60.031654
88.867188	-59.867950
89.843750	-59.148075
90.820312	-59.790585
91.796875	-59.569126
92.773438	-61.427090
93.750000	-63.917805
94.726562	-65.661301
95.703125	-65.936134
96.679688	-65.996796
97.656250	-65.128700
98.632812	-65.025085
99.609375	-62.996994
100.585938	-64.407967
101.562500	-62.604317
102.539062	-61.636333
103.515625	-60.959396
104.492188	-60.757835
105.468750	-59.714031
106.445312	-59.035172
107.421875	-60.038864
108.398438	-62.174271
109.375000	-61.791130
110.351562	-61.672939
111.328125	-60.697300
112.304688	-58.279316
113.281250	-55.366421
114.257812	-49.654640
115.234375	-56.391594
116.210938	-58.174015
117.187500	-59.601784
118.164062	-59.459068
119.140625	-58.385845
120.117188	-58.775253
121.093750	-59.687706
122.070312	-57.831661
123.046875	-59.896145
124.023438	-61.603577
125.000000	-59.888927
125.976562	-60.893635
126.953125	-61.483635
127.929688	-60.048286
128.906250	-59.665596
129.882812	-58.861042
130.859375	-59.707355
131.835938	-58.728291
132.812500	-58.267067
133.789062	-57.984356
134.765625	-58.664219
135.742188	-59.130932
136.718750	-59.644791
137.695312	-59.176811
138.671875	-59.539650
139.648438	-56.401783
140.625000	-59.494690
141.601562	-58.095840
142.578125	-58.599140
143.554688	-58.966244
144.531250	-58.931072
145.507812	-57.484612
146.484375	-56.586620
147.460938	-57.883934
148.437500	-58.729309
149.414062	-60.160740
150.390625	-61.017426
151.367188	-60.643444
152.343750	-62.140663
153.320312	-62.088631
154.296875	-62.694382
155.273438	-62.397717
156.250000	-61.043411
157.226562	-61.254189
158.203125	-61.338985
159.179688	-63.074379
160.156250	-60.922157
161.132812	-63.180153
162.109375	-63.904709
163.085938	-63.190216
164.062500	-64.314735
165.039062	-63.269207
166.015625	-63.545586
166.992188	-64.485931
167.968750	-62.972214
168.945312	-63.257332
169.921875	-65.099365
170.898438	-65.866539
171.875000	-66.866333
172.851562	-66.101555
173.828125	-66.202507
174.804688	-66.756622
175.781250	-66.086792
176.757812	-66.387520
177.734375	-66.142593
178.710938	-65.087837
179.687500	-65.867180
180.664062	-66.559052
181.640625	-66.727318
182.617188	-67.424690
183.593750	-69.073982
184.570312	-68.432938
185.546875	-68.964890
186.523438	-71.128662
187.500000	-68.688690
188.476562	-69.461060
189.453125	-70.333931
190.429688	-68.543518
191.406250	-71.485001
192.382812	-69.899071
193.359375	-72.190208
194.335938	-69.742065
195.312500	-69.775826
196.289062	-71.415123
197.265625	-71.421249
198.242188	-71.734512
199.218750	-70.113861
200.195312	-71.193237
201.171875	-71.682571
202.148438	-70.611046
203.125000	-72.034004
204.101562	-70.616150
205.078125	-70.926865
206.054688	-70.207657
207.031250	-70.810295
208.007812	-71.158028
208.984375	-71.583267
209.960938	-72.406715
210.937500	-71.498497
211.914062	-71.074600
212.890625	-70.866585
213.867188	-69.274467
214.843750	-72.061058
215.820312	-71.940178
216.796875	-71.753242
217.773438	-72.324944
218.750000	-73.485603
219.726562	-73.246651
220.703125	-72.692795
221.679688	-73.216278
222.656250	-73.535301
223.632812	-73.374168
224.609375	-73.299232
225.585938	-74.126068
226.562500	-73.701996
227.539062	-73.318779
228.515625	-72.959358
229.492188	-72.633041
230.468750	-73.084213
231.445312	-72.562096
232.421875	-72.715752
233.398438	-72.578506
234.375000	-72.926773
235.351562	-74.372238
236.328125	-75.117050
237.304688	-74.330032
238.281250	-74.775764
239.257812	-72.691750
240.234375	-72.439087
241.210938	-72.835670
242.187500	-73.066475
243.164062	-73.445045
244.140625	-72.686417
245.117188	-74.055504
246.093750	-73.885963
247.070312	-73.577545
248.046875	-74.200455
249.023438	-73.519745
250.000000	-73.897827
250.976562	-73.173538
251.953125	-72.971786
252.929688	-73.675331
253.906250	-73.078705
254.882812	-71.841583
255.859375	-73.446953
256.835938	-74.820915
257.812500	-73.831604
258.789062	-74.380295
259.765625	-75.165512
260.742188	-75.418213
261.718750	-74.864937
262.695312	-74.510040
263.671875	-75.266273
264.648438	-75.468170
265.625000	-73.907455
266.601562	-74.607025
267.578125	-74.322479
268.554688	-73.862953
269.531250	-74.540558
270.507812	-73.752686
271.484375	-75.797211
272.460938	-73.487068
273.437500	-75.596802
274.414062	-75.695534
275.390625	-74.822990
276.367188	-73.880775
277.343750	-74.082596
278.320312	-75.070335
279.296875	-75.976021
280.273438	-74.776382
281.250000	-74.879967
282.226562	-72.637451
283.203125	-68.626427
284.179688	-74.476456
285.156250	-75.118927
286.132812	-74.898354
287.109375	-75.916763
288.085938	-73.931458
289.062500	-75.155418
290.039062	-75.516159
291.015625	-75.733223
291.992188	-75.452545
292.968750	-75.026718
293.945312	-75.140190
294.921875	-75.444939
295.898438	-75.853973
296.875000	-75.655396
297.851562	-76.440407
298.828125	-75.654251
299.804688	-75.366699
300.781250	-76.110489
301.757812	-75.153725
302.734375	-74.566353
303.710938	-75.680428
304.687500	-76.085785
305.664062	-75.356880
306.640625	-74.624687
307.617188	-75.210320
308.593750	-75.931976
309.570312	-74.469864
310.546875	-76.327507
311.523438	-76.240471
312.500000	-74.987000
313.476562	-75.915314
314.453125	-74.228821
315.429688	-74.722588
316.406250	-75.607224
317.382812	-74.953995
318.359375	-74.981186
319.335938	-76.476135
320.312500	-76.333420
321.289062	-75.918488
322.265625	-75.884758
323.242188	-75.628822
324.218750	-74.836815
325.195312	-76.052666
326.171875	-75.980896
327.148438	-75.225082
328.125000	-75.975342
329.101562	-74.265114
330.078125	-75.023537
331.054688	-74.405373
332.031250	-75.069641
333.007812	-74.915268
333.984375	-75.390892
334.960938	-74.960861
335.937500	-75.574608
336.914062	-75.862190
337.890625	-75.104225
338.867188	-75.742950
339.843750	-75.898918
340.820312	-75.481094
341.796875	-75.695259
342.773438	-75.795860
343.750000	-74.322273
344.726562	-75.603905
345.703125	-76.264931
346.679688	-75.661438
347.656250	-75.885971
348.632812	-74.958633
349.609375	-76.329300
350.585938	-75.817711
351.562500	-74.078903
352.539062	-74.202866
353.515625	-74.386116
354.492188	-74.742859
355.468750	-73.468063
356.445312	-74.422134
357.421875	-74.815132
358.398438	-76.615730
359.375000	-74.779900
360.351562	-75.199570
361.328125	-75.652023
362.304688	-75.497330
363.281250	-75.207306
364.257812	-74.958015
365.234375	-75.448204
366.210938	-76.998543
367.187500	-75.695023
368.164062	-76.555801
369.140625	-74.145050
370.117188	-75.470993
371.093750	-75.673492
372.070312	-75.513260
373.046875	-73.650726
374.023438	-73.284180
375.000000	-73.947113
375.976562	-74.941536
376.953125	-74.817490
377.929688	-75.208527
378.906250	-75.298119
379.882812	-74.957352
380.859375	-75.238342
381.835938	-75.360077
382.812500	-74.228355
383.789062	-74.804070
384.765625	-75.084167
385.742188	-75.781921
386.718750	-74.968399
387.695312	-76.057487
388.671875	-75.629349
389.648438	-74.050079
390.625000	-74.423340
391.601562	-76.379623
392.578125	-76.616173
393.554688	-74.909393
394.531250	-75.926231
395.507812	-74.809174
396.484375	-74.553627
397.460938	-75.730957
398.437500	-75.026756
399.414062	-74.280960
400.390625	-75.565796
401.367188	-74.753792
402.343750	-74.692871
403.320312	-73.617661
404.296875	-73.471657
405.273438	-76.461494
406.250000	-75.577263
407.226562	-74.540108
408.203125	-74.790634
409.179688	-74.388443
410.156250	-75.503792
411.132812	-75.042244
412.109375	-74.686531
413.085938	-73.428688
414.062500	-75.141670
415.039062	-74.713379
416.015625	-74.166679
416.992188	-73.845016
417.968750	-75.197105
418.945312	-74.333641
419.921875	-75.240448
420.898438	-73.428719
421.875000	-74.522057
422.851562	-74.219238
423.828125	-74.317398
424.804688	-72.870834
425.781250	-73.577026
426.757812	-74.358582
427.734375	-75.125137
428.710938	-74.833252
429.687500	-74.293922
430.664062	-73.865608
431.640625	-72.106468
432.617188	-73.664192
433.593750	-74.449287
434.570312	-74.728180
435.546875	-73.793861
436.523438	-74.137016
437.500000	-72.227402
438.476562	-73.453232
439.453125	-73.633003
440.429688	-74.627998
441.406250	-73.327217
442.382812	-73.070557
443.359375	-74.024475
444.335938	-73.758759
445.312500	-73.826126
446.289062	-73.906799
447.265625	-72.830170
448.242188	-73.594582
449.218750	-72.637581
450.195312	-74.405174
451.171875	-73.165894
452.148438	-73.647385
453.125000	-74.719917
454.101562	-73.273735
455.078125	-72.805908
456.054688	-72.878136
457.031250	-73.750313
458.007812	-73.086029
458.984375	-73.073135
459.960938	-72.878510
460.937500	-71.685585
461.914062	-72.453400
462.890625	-72.888878
463.867188	-73.082870
464.843750	-73.096954
465.820312	-73.333275
466.796875	-72.115257
467.773438	-72.549522
468.750000	-72.409904
469.726562	-71.474304
470.703125	-71.344955
471.679688	-73.139282
472.656250	-71.702774
473.632812	-71.754189
474.609375	-73.247223
475.585938	-73.493187
476.562500	-71.976166
477.539062	-72.288414
478.515625	-72.357437
479.492188	-72.764061
480.468750	-72.193604
481.445312	-71.768051
482.421875	-72.594681
483.398438	-71.704330
484.375000	-72.077194
485.351562	-72.202515
486.328125	-72.006668
487.304688	-72.356689
488.281250	-72.832176
489.257812	-70.461143
490.234375	-70.304985
491.210938	-71.712814
492.187500	-73.065277
493.164062	-70.032310
494.140625	-71.606880
495.117188	-71.695549
496.093750	-70.471306
497.070312	-72.377174
498.046875	-71.887817
499.023438	-71.705109
500.000000	-71.297623
500.976562	-70.549065
501.953125	-69.908539
502.929688	-71.781754
503.906250	-71.653214
504.882812	-71.256027
505.859375	-70.361626
506.835938	-70.392853
507.812500	-69.732384
508.789062	-71.806923
509.765625	-71.504814
510.742188	-69.733124
511.718750	-70.391937
512.695312	-69.826736
513.671875	-70.405457
514.648438	-70.261108
515.625000	-69.832535
516.601562	-70.136215
517.578125	-70.510239
518.554688	-68.832886
519.531250	-70.194023
520.507812	-70.129906
521.484375	-69.906975
522.460938	-69.793106
523.437500	-69.531830
524.414062	-70.077103
525.390625	-70.403336
526.367188	-69.954208
527.343750	-69.910820
528.320312	-69.827705
529.296875	-68.787865
530.273438	-69.510048
531.250000	-68.179947
532.226562	-67.969162
533.203125	-67.758881
534.179688	-69.016716
535.156250	-68.307549
536.132812	-67.923950
537.109375	-69.085793
538.085938	-68.756302
539.062500	-68.040817
540.039062	-68.005135
541.015625	-68.397110
541.992188	-67.784897
542.968750	-67.207787
543.945312	-67.917122
544.921875	-67.895981
545.898438	-68.008453
546.875000	-67.848221
547.851562	-66.798553
548.828125	-67.455322
549.804688	-67.819534
550.781250	-66.482033
551.757812	-67.351593
552.734375	-66.722221
553.710938	-66.356094
554.687500	-66.245613
555.664062	-66.074425
556.640625	-65.636330
557.617188	-66.012283
558.593750	-66.120338
559.570312	-65.626701
560.546875	-66.495316
561.523438	-66.157364
562.500000	-66.224617
563.476562	-64.910492
564.453125	-64.934441
565.429688	-65.955048
566.406250	-66.247269
567.382812	-65.102028
568.359375	-64.929665
569.335938	-65.179802
570.312500	-64.187454
571.289062	-65.509071
572.265625	-64.641975
573.242188	-64.698738
574.218750	-66.026878
575.195312	-65.030968
576.171875	-64.476158
577.148438	-63.605057
578.125000	-64.266022
579.101562	-64.842232
580.078125	-64.346092
581.054688	-64.102577
582.031250	-63.151531
583.007812	-63.163326
583.984375	-64.169937
584.960938	-63.973068
585.937500	-63.060005
586.914062	-62.066048
587.890625	-62.955456
588.867188	-62.362022
589.843750	-62.105732
590.820312	-61.668564
591.796875	-62.681374
592.773438	-61.692886
593.750000	-61.302498
594.726562	-61.569798
595.703125	-62.054756
596.679688	-61.260921
597.656250	-60.840340
598.632812	-61.570736
599.609375	-60.227631
600.585938	-61.277355
601.562500	-60.559341
602.539062	-60.466602
603.515625	-60.906033
604.492188	-60.728294
605.468750	-60.156849
606.445312	-60.446281
607.421875	-59.094254
608.398438	-61.226521
609.375000	-60.048504
610.351562	-58.736031
611.328125	-60.522259
612.304688	-59.618347
613.281250	-60.459747
614.257812	-59.500553
615.234375	-59.191048
616.210938	-59.278801
617.187500	-59.193821
618.164062	-59.159012
619.140625	-59.889908
620.117188	-59.112690
621.093750	-59.101124
622.070312	-58.840801
623.046875	-59.357872
624.023438	-59.140488
625.000000	-58.537369
625.976562	-59.002708
626.953125	-58.963867
627.929688	-59.048359
628.906250	-60.116642
629.882812	-59.505573
630.859375	-59.328037
631.835938	-59.707226
632.812500	-58.867558
633.789062	-58.811935
634.765625	-60.470768
635.742188	-58.882984
636.718750	-59.211132
637.695312	-59.751564
638.671875	-58.963894
639.648438	-59.439075
640.625000	-59.785286
641.601562	-60.085373
642.578125	-59.118641
643.554688	-59.099384
644.531250	-59.430183
645.507812	-58.899548
646.484375	-60.796764
647.460938	-60.700752
648.437500	-59.303268
649.414062	-59.724495
650.390625	-60.388935
651.367188	-59.541256
652.343750	-59.039513
653.320312	-60.345722
654.296875	-60.165363
655.273438	-60.254444
656.250000	-61.133545
657.226562	-61.803844
658.203125	-60.964272
659.179688	-61.744007
660.156250	-61.345795
661.132812	-61.971004
662.109375	-61.615025
663.085938	-60.800228
664.062500	-61.213451
665.039062	-60.843861
666.015625	-61.619774
666.992188	-63.015911
667.968750	-63.035732
668.945312	-62.416264
669.921875	-62.598907
670.898438	-62.420357
671.875000	-62.171684
672.851562	-61.763355
673.828125	-63.312897
674.804688	-63.418121
675.781250	-64.645264
676.757812	-62.758533
677.734375	-63.431858
678.710938	-64.055992
679.687500	-64.595383
680.664062	-62.562691
681.640625	-62.782097
682.617188	-62.824955
683.593750	-62.898182
684.570312	-63.909622
685.546875	-63.460938
686.523438	-64.102936
687.500000	-64.874466
688.476562	-64.562744
689.453125	-63.845699
690.429688	-65.516792
691.406250	-65.409195
692.382812	-64.671967
693.359375	-64.758041
694.335938	-65.255234
695.312500	-66.227890
696.289062	-66.477196
697.265625	-65.125862
698.242188	-65.252548
699.218750	-66.599861
700.195312	-65.908707
701.171875	-65.085007
702.148438	-65.825073
703.125000	-65.374001
704.101562	-64.856575
705.078125	-65.998886
706.054688	-65.582825
707.031250	-66.417908
708.007812	-66.613319
708.984375	-66.411156
709.960938	-67.168602
710.937500	-66.013512
711.914062	-65.821800
712.890625	-66.783455
713.867188	-65.596268
714.843750	-67.127609
715.820312	-66.165382
716.796875	-66.707359
717.773438	-66.814583
718.750000	-66.823967
719.726562	-67.660149
720.703125	-67.309814
721.679688	-66.796776
722.656250	-67.468185
723.632812	-67.513489
724.609375	-67.062164
725.585938	-66.493645
726.562500	-66.859627
727.539062	-68.264832
728.515625	-67.642593
729.492188	-68.608673
730.468750	-67.457939
731.445312	-67.471329
732.421875	-68.303352
733.398438	-68.501778
734.375000	-66.980026
735.351562	-68.768013
736.328125	-68.917389
737.304688	-68.763474
738.281250	-67.900932
739.257812	-67.758072
740.234375	-68.167221
741.210938	-69.335083
742.187500	-67.460411
743.164062	-67.302666
744.140625	-69.314026
745.117188	-68.141174
746.093750	-68.170769
747.070312	-68.722191
748.046875	-68.184547
749.023438	-69.636482
750.000000	-69.972618
750.976562	-68.739609
751.953125	-68.315331
752.929688	-70.002411
753.906250	-69.607948
754.882812	-68.996330
755.859375	-69.168861
756.835938	-69.794914
757.812500	-69.850655
758.789062	-69.376411
759.765625	-69.121040
760.742188	-69.360588
761.718750	-69.597130
762.695312	-69.794792
763.671875	-69.994743
764.648438	-69.039642
765.625000	-69.906235
766.601562	-70.116508
767.578125	-69.987846
768.554688	-69.031509
769.531250	-69.652687
770.507812	-69.404999
771.484375	-70.029282
772.460938	-71.011902
773.437500	-70.259575
774.414062	-70.024269
775.390625	-69.018929
776.367188	-70.681892
777.343750	-70.296089
778.320312	-69.961441
779.296875	-70.223213
780.273438	-71.857849
781.250000	-71.873680
782.226562	-71.375076
783.203125	-70.254295
784.179688	-70.204018
785.156250	-70.049828
786.132812	-70.260948
787.109375	-70.351212
788.085938	-69.202553
789.062500	-70.293182
790.039062	-70.558151
791.015625	-71.415329
791.992188	-69.718796
792.968750	-69.977005
793.945312	-70.159996
794.921875	-70.945702
795.898438	-70.365692
796.875000	-70.411476
797.851562	-70.084053
798.828125	-69.366516
799.804688	-69.512817
800.781250	-70.619118
801.757812	-70.648804
802.734375	-70.553543
803.710938	-70.646080
804.687500	-71.553284
805.664062	-70.528931
806.640625	-70.954285
807.617188	-70.930183
808.593750	-70.551636
809.570312	-70.279060
810.546875	-70.948341
811.523438	-72.086517
812.500000	-71.246201
813.476562	-70.052467
814.453125	-70.714523
815.429688	-70.997322
816.406250	-70.217819
817.382812	-71.359413
818.359375	-70.619759
819.335938	-71.109489
820.312500	-70.463753
821.289062	-70.936707
822.265625	-71.686890
823.242188	-70.577576
824.218750	-71.299500
825.195312	-70.951729
826.171875	-71.803970
827.148438	-69.964752
828.125000	-71.599152
829.101562	-71.805725
830.078125	-71.216164
831.054688	-71.202972
832.031250	-70.836365
833.007812	-71.294601
833.984375	-71.245438
834.960938	-71.607887
835.937500	-71.744415
836.914062	-71.196342
837.890625	-72.333519
838.867188	-71.592209
839.843750	-72.243690
840.820312	-72.696304
841.796875	-70.918152
842.773438	-71.219376
843.750000	-72.249283
844.726562	-70.729515
845.703125	-72.458183
846.679688	-72.364899
847.656250	-70.651733
848.632812	-70.730881
849.609375	-71.220917
850.585938	-71.506775
851.562500	-71.892906
852.539062	-71.583504
853.515625	-71.851875
854.492188	-71.651443
855.468750	-72.012878
856.445312	-71.459557
857.421875	-71.013718
858.398438	-72.119804
859.375000	-71.260117
860.351562	-71.028412
861.328125	-71.753876
862.304688	-71.744453
863.281250	-72.054901
864.257812	-71.281174
865.234375	-72.601097
866.210938	-71.325928
867.187500	-71.839607
868.164062	-70.887650
869.140625	-71.319046
870.117188	-70.723839
871.093750	-71.434456
872.070312	-70.939339
873.046875	-71.265671
874.023438	-71.058182
875.000000	-71.914314
875.976562	-71.408875
876.953125	-71.711220
877.929688	-71.839302
878.906250	-71.846329
879.882812	-72.002457
880.859375	-71.230339
881.835938	-70.936310
882.812500	-72.020821
883.789062	-71.612640
884.765625	-71.598213
885.742188	-71.747688
886.718750	-71.348656
887.695312	-71.623436
888.671875	-71.091278
889.648438	-69.812897
890.625000	-72.503876
891.601562	-72.094887
892.578125	-72.690552
893.554688	-72.543770
894.531250	-71.755135
895.507812	-72.028702
896.484375	-72.235588
897.460938	-72.201752
898.437500	-72.785080
899.414062	-72.318306
900.390625	-71.623497
901.367188	-70.842613
902.343750	-71.115150
903.320312	-71.849281
904.296875	-72.261703
905.273438	-71.014793
906.250000	-70.748482
907.226562	-71.289345
908.203125	-72.353271
909.179688	-72.183586
910.156250	-72.002319
911.132812	-71.096443
912.109375	-69.715881
913.085938	-72.339455
914.062500	-71.616806
915.039062	-71.857506
916.015625	-73.101440
916.992188	-70.893425
917.968750	-70.838089
918.945312	-71.770752
919.921875	-71.722588
920.898438	-70.680458
921.875000	-71.312721
922.851562	-72.681931
923.828125	-70.510292
924.804688	-71.198006
925.781250	-71.705070
926.757812	-70.669235
927.734375	-72.080490
928.710938	-72.277565
929.687500	-71.567375
930.664062	-70.901367
931.640625	-71.063652
932.617188	-70.996193
933.593750	-71.554199
934.570312	-71.632996
935.546875	-70.612007
936.523438	-71.484558
937.500000	-71.397217
938.476562	-71.235931
939.453125	-70.692070
940.429688	-70.989372
941.406250	-70.713554
942.382812	-70.770378
943.359375	-72.182289
944.335938	-72.425575
945.312500	-70.788719
946.289062	-71.338768
947.265625	-71.109619
948.242188	-71.432220
949.218750	-70.878639
950.195312	-70.398300
951.171875	-71.540543
952.148438	-71.338959
953.125000	-70.233482
954.101562	-71.643875
955.078125	-70.412621
956.054688	-70.608566
957.031250	-70.154778
958.007812	-71.626259
958.984375	-71.210884
959.960938	-72.327019
960.937500	-72.025841
961.914062	-71.427406
962.890625	-71.194389
963.867188	-70.133408
964.843750	-70.571434
965.820312	-71.369247
966.796875	-71.567406
967.773438	-72.377762
968.750000	-71.747452
969.726562	-71.045792
970.703125	-70.120148
971.679688	-70.922485
972.656250	-70.599365
973.632812	-70.452484
974.609375	-70.157227
975.585938	-70.333107
976.562500	-70.656349
977.539062	-70.239250
978.515625	-70.906921
979.492188	-70.116257
980.468750	-70.166542
981.445312	-70.575912
982.421875	-70.434761
983.398438	-69.662231
984.375000	-71.472580
985.351562	-70.609009
986.328125	-70.321190
987.304688	-69.115944
988.281250	-70.447754
989.257812	-72.711723
990.234375	-71.221474
991.210938	-71.247757
992.187500	-69.702209
993.164062	-70.682693
994.140625	-70.553307
995.117188	-69.962524
996.093750	-70.286003
997.070312	-71.211288
998.046875	-70.773376
999.023438	-70.172455
1000.000000	-70.400307
1000.976562	-68.467865
1001.953125	-69.624603
1002.929688	-68.337715
1003.906250	-69.999794
1004.882812	-70.111084
1005.859375	-68.523804
1006.835938	-69.473015
1007.812500	-69.038788
1008.789062	-70.458038
1009.765625	-69.257790
1010.742188	-70.268929
1011.718750	-69.864639
1012.695312	-71.146484
1013.671875	-70.114708
1014.648438	-68.982101
1015.625000	-69.143311
1016.601562	-69.045830
1017.578125	-69.021942
1018.554688	-69.256760
1019.531250	-68.469887
1020.507812	-69.165070
1021.484375	-69.365196
1022.460938	-69.782814
1023.437500	-69.560211
1024.414062	-69.830734
1025.390625	-68.563881
1026.367188	-69.694405
1027.343750	-68.067574
1028.320312	-70.328102
1029.296875	-68.850578
1030.273438	-69.442413
1031.250000	-69.693100
1032.226562	-69.639297
1033.203125	-69.138535
1034.179688	-69.225899
1035.156250	-68.825447
1036.132812	-67.886070
1037.109375	-68.867126
1038.085938	-70.247040
1039.062500	-68.388084
1040.039062	-70.229675
1041.015625	-68.361031
1041.992188	-68.241516
1042.968750	-69.410133
1043.945312	-68.100288
1044.921875	-67.725441
1045.898438	-66.587570
1046.875000	-66.888565
1047.851562	-66.978256
1048.828125	-69.022873
1049.804688	-68.271988
1050.781250	-67.007576
1051.757812	-67.188759
1052.734375	-69.641006
1053.710938	-68.460747
1054.687500	-66.972931
1055.664062	-66.499947
1056.640625	-68.081116
1057.617188	-68.151802
1058.593750	-67.793831
1059.570312	-67.204407
1060.546875	-66.514259
1061.523438	-67.086884
1062.500000	-68.178078
1063.476562	-67.987167
1064.453125	-68.154045
1065.429688	-67.890930
1066.406250	-67.836723
1067.382812	-67.431107
1068.359375	-66.782524
1069.335938	-64.754562
1070.312500	-66.877823
1071.289062	-67.923340
1072.265625	-65.853996
1073.242188	-65.735550
1074.218750	-65.343193
1075.195312	-65.800728
1076.171875	-66.885666
1077.148438	-66.705299
1078.125000	-66.975685
1079.101562	-66.562195
1080.078125	-66.315758
1081.054688	-66.446281
1082.031250	-66.171104
1083.007812	-66.323822
1083.984375	-66.080734
1084.960938	-65.876625
1085.937500	-66.132660
1086.914062	-65.460030
1087.890625	-63.789032
1088.867188	-66.800591
1089.843750	-67.518364
1090.820312	-65.772865
1091.796875	-66.634071
1092.773438	-64.340424
1093.750000	-65.190369
1094.726562	-66.646561
1095.703125	-64.455948
1096.679688	-63.944756
1097.656250	-65.657784
1098.632812	-64.863358
1099.609375	-63.247334
1100.585938	-64.848511
1101.562500	-63.947132
1102.539062	-63.875301
1103.515625	-64.066940
1104.492188	-63.847015
1105.468750	-64.378105
1106.445312	-63.648315
1107.421875	-64.114082
1108.398438	-63.605782
1109.375000	-64.939964
1110.351562	-64.099976
1111.328125	-64.130188
1112.304688	-63.600407
1113.281250	-63.903931
1114.257812	-63.387882
1115.234375	-62.454105
1116.210938	-64.321999
1117.187500	-62.759830
1118.164062	-63.596363
1119.140625	-62.752014
1120.117188	-61.851940
1121.093750	-62.177593
1122.070312	-61.979401
1123.046875	-61.099991
1124.023438	-61.601818
1125.000000	-62.150574
1125.976562	-61.056759
1126.953125	-63.017033
1127.929688	-61.997337
1128.906250	-61.428852
1129.882812	-62.025696
1130.859375	-60.629417
1131.835938	-61.654564
1132.812500	-60.102276
1133.789062	-61.010399
1134.765625	-61.347343
1135.742188	-62.087502
1136.718750	-60.068401
1137.695312	-60.932049
1138.671875	-60.289295
1139.648438	-60.464207
1140.625000	-59.901108
1141.601562	-59.770252
1142.578125	-60.794525
1143.554688	-59.389370
1144.531250	-61.549438
1145.507812	-59.831379
1146.484375	-60.630665
1147.460938	-60.310432
1148.437500	-58.476593
1149.414062	-59.782223
1150.390625	-59.302631
1151.367188	-59.033375
1152.343750	-58.580933
1153.320312	-57.441769
1154.296875	-59.654030
1155.273438	-58.694859
1156.250000	-58.898273
1157.226562	-59.086231
1158.203125	-58.797325
1159.179688	-58.018112
1160.156250	-57.743984
1161.132812	-59.533226
1162.109375	-58.992008
1163.085938	-58.307049
1164.062500	-58.099270
1165.039062	-58.399067
1166.015625	-57.010189
1166.992188	-57.341991
1167.968750	-57.838223
1168.945312	-56.656364
1169.921875	-56.757919
1170.898438	-57.022358
1171.875000	-56.486351
1172.851562	-57.159344
1173.828125	-57.065460
1174.804688	-56.582848
1175.781250	-56.286716
1176.757812	-56.336853
1177.734375	-57.101765
1178.710938	-57.796791
1179.687500	-56.169460
1180.664062	-56.879913
1181.640625	-55.677891
1182.617188	-55.917564
1183.593750	-55.577377
1184.570312	-56.406273
1185.546875	-55.716339
1186.523438	-54.617382
1187.500000	-55.980427
1188.476562	-56.024002
1189.453125	-54.595188
1190.429688	-55.004978
1191.406250	-54.918026
1192.382812	-55.145206
1193.359375	-54.797024
1194.335938	-53.897171
1195.312500	-55.049011
1196.289062	-55.726170
1197.265625	-55.902569
1198.242188	-55.828106
1199.218750	-56.202694
1200.195312	-55.583405
1201.171875	-54.548496
1202.148438	-54.531837
1203.125000	-54.501915
1204.101562	-55.761562
1205.078125	-54.577457
1206.054688	-55.565926
1207.031250	-55.367294
1208.007812	-54.413181
1208.984375	-54.983017
1209.960938	-55.320038
1210.937500	-56.059334
1211.914062	-56.932045
1212.890625	-55.421055
1213.867188	-55.734016
1214.843750	-57.016678
1215.820312	-56.017155
1216.796875	-56.352200
1217.773438	-54.786125
1218.750000	-55.525753
1219.726562	-56.938099
1220.703125	-57.000156
1221.679688	-56.136112
1222.656250	-56.972725
1223.632812	-56.595612
1224.609375	-57.261711
1225.585938	-56.399837
1226.562500	-58.393250
1227.539062	-58.204300
1228.515625	-57.305847
1229.492188	-57.926247
1230.468750	-56.800446
1231.445312	-57.311523
1232.421875	-57.999695
1233.398438	-58.296627
1234.375000	-59.056499
1235.351562	-58.096767
1236.328125	-58.810444
1237.304688	-57.792568
1238.281250	-59.717522
1239.257812	-57.437576
1240.234375	-57.428684
1241.210938	-58.069084
1242.187500	-58.183918
1243.164062	-59.785004
1244.140625	-59.369671
1245.117188	-58.452332
1246.093750	-59.018185
1247.070312	-58.446957
1248.046875	-58.983425
1249.023438	-59.037071
1250.000000	-59.904907
1250.976562	-59.923275
1251.953125	-59.542854
1252.929688	-59.777370
1253.906250	-59.577019
1254.882812	-60.260551
1255.859375	-59.992435
1256.835938	-61.322906
1257.812500	-60.435440
1258.789062	-60.899864
1259.765625	-60.815079
1260.742188	-61.540649
1261.718750	-61.299873
1262.695312	-60.607029
1263.671875	-61.164242
1264.648438	-61.425362
1265.625000	-60.586487
1266.601562	-62.652840
1267.578125	-61.924488
1268.554688	-61.045021
1269.531250	-61.299240
1270.507812	-61.732162
1271.484375	-62.620529
1272.460938	-61.659111
1273.437500	-62.361397
1274.414062	-61.743530
1275.390625	-61.992962
1276.367188	-63.102036
1277.343750	-61.419212
1278.320312	-62.897556
1279.296875	-62.755173
1280.273438	-62.837101
1281.250000	-62.836262
1282.226562	-63.490936
1283.203125	-64.239426
1284.179688	-62.204582
1285.156250	-62.490688
1286.132812	-63.428642
1287.109375	-64.744202
1288.085938	-64.003860
1289.062500	-63.145515
1290.039062	-63.109352
1291.015625	-63.499844
1291.992188	-63.860268
1292.968750	-63.427467
1293.945312	-64.773193
1294.921875	-63.394058
1295.898438	-64.073982
1296.875000	-62.928822
1297.851562	-63.942677
1298.828125	-63.181919
1299.804688	-63.617908
1300.781250	-64.390160
1301.757812	-65.697250
1302.734375	-64.601089
1303.710938	-64.072762
1304.687500	-66.023453
1305.664062	-64.663841
1306.640625	-63.954681
1307.617188	-65.239136
1308.593750	-65.195847
1309.570312	-65.466927
1310.546875	-65.250809
1311.523438	-65.086899
1312.500000	-65.274582
1313.476562	-65.076302
1314.453125	-63.836781
1315.429688	-64.832390
1316.406250	-64.770294
1317.382812	-65.052605
1318.359375	-65.152412
1319.335938	-64.508324
1320.312500	-67.319054
1321.289062	-65.129189
1322.265625	-66.270126
1323.242188	-66.262596
1324.218750	-65.941444
1325.195312	-66.883629
1326.171875	-66.723892
1327.148438	-66.654289
1328.125000	-66.322693
1329.101562	-65.340820
1330.078125	-65.267365
1331.054688	-66.042633
1332.031250	-65.912376
1333.007812	-66.547485
1333.984375	-66.962242
1334.960938	-66.801437
1335.937500	-65.924911
1336.914062	-66.081802
1337.890625	-66.198128
1338.867188	-66.870224
1339.843750	-66.982994
1340.820312	-67.007126
1341.796875	-66.266464
1342.773438	-67.095444
1343.750000	-66.734833
1344.726562	-67.146248
1345.703125	-68.003281
1346.679688	-66.074493
1347.656250	-65.426430
1348.632812	-66.481606
1349.609375	-66.062042
1350.585938	-67.578491
1351.562500	-67.776886
1352.539062	-67.673111
1353.515625	-66.433144
1354.492188	-66.710350
1355.468750	-66.836693
1356.445312	-67.541229
1357.421875	-67.045715
1358.398438	-66.257828
1359.375000	-66.348831
1360.351562	-66.384148
1361.328125	-67.173363
1362.304688	-67.143051
1363.281250	-68.092216
1364.257812	-66.240112
1365.234375	-67.256516
1366.210938	-66.406006
1367.187500	-67.961128
1368.164062	-66.489136
1369.140625	-67.836357
1370.117188	-68.649879
1371.093750	-67.476189
1372.070312	-67.158112
1373.046875	-68.602783
1374.023438	-67.112083
1375.000000	-67.788124
1375.976562	-67.912964
1376.953125	-67.151840
1377.929688	-68.338348
1378.906250	-67.943916
1379.882812	-67.825981
1380.859375	-67.489754
1381.835938	-67.869682
1382.812500	-68.299355
1383.789062	-68.328392
1384.765625	-67.034645
1385.742188	-68.579803
1386.718750	-68.079781
1387.695312	-67.300285
1388.671875	-67.308838
1389.648438	-68.162300
1390.625000	-67.204605
1391.601562	-67.819229
1392.578125	-66.855186
1393.554688	-67.829895
1394.531250	-68.038567
1395.507812	-67.819466
1396.484375	-67.917458
1397.460938	-67.571098
1398.437500	-67.874214
1399.414062	-68.432915
1400.390625	-68.464951
1401.367188	-68.741966
1402.343750	-68.087479
1403.320312	-67.349197
1404.296875	-68.236397
1405.273438	-68.644310
1406.250000	-68.580994
1407.226562	-67.937080
1408.203125	-66.821007
1409.179688	-68.550560
1410.156250	-69.085434
1411.132812	-68.123665
1412.109375	-68.907898
1413.085938	-68.044258
1414.062500	-67.527100
1415.039062	-68.216560
1416.015625	-67.118431
1416.992188	-68.206017
1417.968750	-68.138809
1418.945312	-67.777954
1419.921875	-69.261826
1420.898438	-68.298225
1421.875000	-69.514984
1422.851562	-70.103798
1423.828125	-68.546303
1424.804688	-67.750084
1425.781250	-67.990433
1426.757812	-66.634224
1427.734375	-68.643272
1428.710938	-68.737572
1429.687500	-68.687050
1430.664062	-67.820175
1431.640625	-68.386894
1432.617188	-68.844490
1433.593750	-68.203720
1434.570312	-68.542236
1435.546875	-68.952248
1436.523438	-69.787621
1437.500000	-69.105202
1438.476562	-68.362869
1439.453125	-68.036690
1440.429688	-68.283401
1441.406250	-68.006073
1442.382812	-68.264839
1443.359375	-68.496819
1444.335938	-67.848709
1445.312500	-69.944794
1446.289062	-68.971672
1447.265625	-69.075256
1448.242188	-68.040741
1449.218750	-68.739212
1450.195312	-69.103638
1451.171875	-68.686806
1452.148438	-68.616104
1453.125000	-70.166000
1454.101562	-68.235100
1455.078125	-69.272911
1456.054688	-68.239639
1457.031250	-68.600525
1458.007812	-68.511345
1458.984375	-68.274033
1459.960938	-69.661171
1460.937500	-68.851562
1461.914062	-69.090027
1462.890625	-68.510056
1463.867188	-68.822098
1464.843750	-68.428398
1465.820312	-67.573257
1466.796875	-67.023232
1467.773438	-68.045181
1468.750000	-67.516312
1469.726562	-68.335350
1470.703125	-68.533104
1471.679688	-68.911789
1472.656250	-67.972397
1473.632812	-68.981407
1474.609375	-67.853897
1475.585938	-68.617149
1476.562500	-67.504898
1477.539062	-68.090302
1478.515625	-67.559975
1479.492188	-68.717117
1480.468750	-68.689346
1481.445312	-69.720993
1482.421875	-68.420189
1483.398438	-68.427757
1484.375000	-68.296059
1485.351562	-68.422592
1486.328125	-68.080696
1487.304688	-68.157890
1488.281250	-67.947670
1489.257812	-69.168633
1490.234375	-68.878754
1491.210938	-68.511673
1492.187500	-68.292809
1493.164062	-67.836044
1494.140625	-68.787071
1495.117188	-68.409073
1496.093750	-67.998871
1497.070312	-68.822769
1498.046875	-68.063271
1499.023438	-69.419174
1500.000000	-69.052727
1500.976562	-67.687958
1501.953125	-68.724846
1502.929688	-67.428482
1503.906250	-68.596992
1504.882812	-68.682022
1505.859375	-68.313873
1506.835938	-68.016106
1507.812500	-68.258781
1508.789062	-68.359932
1509.765625	-69.094360
1510.742188	-68.556511
1511.718750	-68.210297
1512.695312	-67.545715
1513.671875	-67.008591
1514.648438	-67.141678
1515.625000	-68.356956
1516.601562	-68.362953
1517.578125	-67.669334
1518.554688	-68.505447
1519.531250	-67.734673
1520.507812	-67.970604
1521.484375	-67.820259
1522.460938	-67.685371
1523.437500	-67.620003
1524.414062	-68.654190
1525.390625	-68.048149
1526.367188	-68.374046
1527.343750	-68.797340
1528.320312	-67.521095
1529.296875	-66.724403
1530.273438	-67.324211
1531.250000	-67.573639
1532.226562	-68.412582
1533.203125	-67.503799
1534.179688	-68.261070
1535.156250	-67.143661
1536.132812	-68.660698
1537.109375	-67.032104
1538.085938	-67.473862
1539.062500	-68.221855
1540.039062	-69.286995
1541.015625	-69.245140
1541.992188	-67.610268
1542.968750	-67.219788
1543.945312	-67.779709
1544.921875	-67.784798
1545.898438	-67.577499
1546.875000	-66.936424
1547.851562	-67.481796
1548.828125	-67.260262
1549.804688	-68.277611
1550.781250	-68.284691
1551.757812	-67.151970
1552.734375	-67.071129
1553.710938	-67.217758
1554.687500	-67.887794
1555.664062	-66.401047
1556.640625	-67.461853
1557.617188	-67.236542
1558.593750	-65.752220
1559.570312	-68.117882
1560.546875	-68.247581
1561.523438	-66.672081
1562.500000	-66.705063
1563.476562	-67.188675
1564.453125	-66.487022
1565.429688	-67.610374
1566.406250	-66.453102
1567.382812	-66.926743
1568.359375	-68.627632
1569.335938	-67.452644
1570.312500	-66.485062
1571.289062	-67.864784
1572.265625	-66.755646
1573.242188	-68.129402
1574.218750	-66.840889
1575.195312	-68.161957
1576.171875	-66.166710
1577.148438	-66.049957
1578.125000	-67.495354
1579.101562	-66.712936
1580.078125	-66.798203
1581.054688	-65.958321
1582.031250	-66.250732
1583.007812	-67.727928
1583.984375	-66.766762
1584.960938	-67.190659
1585.937500	-66.542549
1586.914062	-64.926277
1587.890625	-64.527100
1588.867188	-65.149857
1589.843750	-65.999977
1590.820312	-66.477341
1591.796875	-66.347420
1592.773438	-65.967323
1593.750000	-65.323357
1594.726562	-66.657143
1595.703125	-64.985764
1596.679688	-66.400330
1597.656250	-65.916214
1598.632812	-65.652817
1599.609375	-65.959641
1600.585938	-67.010979
1601.562500	-65.567070
1602.539062	-65.588669
1603.515625	-66.144524
1604.492188	-64.878914
1605.468750	-64.335564
1606.445312	-65.409012
1607.421875	-65.906242
1608.398438	-66.354454
1609.375000	-65.448776
1610.351562	-65.478325
1611.328125	-65.758469
1612.304688	-65.843323
1613.281250	-65.643059
1614.257812	-65.441536
1615.234375	-64.974121
1616.210938	-66.805138
1617.187500	-65.715332
1618.164062	-64.452095
1619.140625	-63.790474
1620.117188	-64.712997
1621.093750	-64.896294
1622.070312	-65.774956
1623.046875	-65.478722
1624.023438	-64.716705
1625.000000	-65.273643
1625.976562	-63.744316
1626.953125	-64.645775
1627.929688	-64.762680
1628.906250	-64.906006
1629.882812	-63.939896
1630.859375	-65.538620
1631.835938	-63.866039
1632.812500	-64.177338
1633.789062	-64.662834
1634.765625	-64.532448
1635.742188	-66.104713
1636.718750	-64.023712
1637.695312	-64.034447
1638.671875	-63.979908
1639.648438	-63.417728
1640.625000	-63.463470
1641.601562	-63.962963
1642.578125	-63.852989
1643.554688	-63.349262
1644.531250	-62.329418
1645.507812	-63.327988
1646.484375	-64.578453
1647.460938	-63.665707
1648.437500	-63.258568
1649.414062	-64.378685
1650.390625	-63.628273
1651.367188	-63.642075
1652.343750	-62.853474
1653.320312	-63.017944
1654.296875	-62.711369
1655.273438	-63.210007
1656.250000	-62.577484
1657.226562	-62.407265
1658.203125	-62.700985
1659.179688	-62.462215
1660.156250	-62.612617
1661.132812	-63.090668
1662.109375	-62.171700
1663.085938	-62.734665
1664.062500	-62.937721
1665.039062	-61.766308
1666.015625	-62.812218
1666.992188	-62.072765
1667.968750	-62.262333
1668.945312	-61.345985
1669.921875	-61.493221
1670.898438	-62.914257
1671.875000	-62.209827
1672.851562	-62.114185
1673.828125	-62.392300
1674.804688	-62.177402
1675.781250	-62.377640
1676.757812	-61.275459
1677.734375	-61.348469
1678.710938	-60.689289
1679.687500	-61.965103
1680.664062	-61.180710
1681.640625	-61.593349
1682.617188	-61.172825
1683.593750	-60.515709
1684.570312	-61.384823
1685.546875	-60.613255
1686.523438	-61.402538
1687.500000	-61.484032
1688.476562	-60.916107
1689.453125	-60.141335
1690.429688	-60.410450
1691.406250	-60.034454
1692.382812	-60.105907
1693.359375	-60.124008
1694.335938	-60.586498
1695.312500	-60.196926
1696.289062	-61.275845
1697.265625	-59.577023
1698.242188	-59.552540
1699.218750	-58.079399
1700.195312	-60.804951
1701.171875	-60.061520
1702.148438	-59.425022
1703.125000	-59.114758
1704.101562	-59.145638
1705.078125	-58.530865
1706.054688	-57.917461
1707.031250	-58.423698
1708.007812	-58.066586
1708.984375	-58.918316
1709.960938	-58.741467
1710.937500	-58.110603
1711.914062	-57.933510
1712.890625	-58.322487
1713.867188	-58.231712
1714.843750	-57.576313
1715.820312	-56.606728
1716.796875	-58.566120
1717.773438	-57.900253
1718.750000	-57.826969
1719.726562	-57.490505
1720.703125	-57.320930
1721.679688	-57.096245
1722.656250	-57.645351
1723.632812	-56.481022
1724.609375	-57.841061
1725.585938	-55.585636
1726.562500	-57.257298
1727.539062	-56.298637
1728.515625	-56.909664
1729.492188	-56.196297
1730.468750	-55.526413
1731.445312	-55.915272
1732.421875	-54.973499
1733.398438	-55.867035
1734.375000	-55.547241
1735.351562	-55.147274
1736.328125	-54.368130
1737.304688	-54.030102
1738.281250	-54.988571
1739.257812	-55.924465
1740.234375	-53.528664
1741.210938	-54.565052
1742.187500	-54.289898
1743.164062	-52.963959
1744.140625	-53.627022
1745.117188	-53.820343
1746.093750	-53.368122
1747.070312	-53.209873
1748.046875	-53.087223
1749.023438	-53.319641
1750.000000	-52.436573
1750.976562	-52.051853
1751.953125	-51.652828
1752.929688	-50.135670
1753.906250	-52.754719
1754.882812	-51.636429
1755.859375	-51.226326
1756.835938	-51.742207
1757.812500	-50.695648
1758.789062	-51.146751
1759.765625	-50.283848
1760.742188	-50.611111
1761.718750	-51.030491
1762.695312	-50.358315
1763.671875	-50.985664
1764.648438	-49.346909
1765.625000	-49.388248
1766.601562	-49.268692
1767.578125	-49.571308
1768.554688	-48.539639
1769.531250	-49.241379
1770.507812	-48.415882
1771.484375	-49.862633
1772.460938	-48.874691
1773.437500	-48.006657
1774.414062	-49.047596
1775.390625	-48.753990
1776.367188	-49.575920
1777.343750	-48.879047
1778.320312	-48.214996
1779.296875	-47.919144
1780.273438	-48.876583
1781.250000	-48.302486
1782.226562	-48.379101
1783.203125	-47.765175
1784.179688	-47.463383
1785.156250	-47.885384
1786.132812	-48.994831
1787.109375	-48.607063
1788.085938	-48.714134
1789.062500	-48.099369
1790.039062	-48.724709
1791.015625	-48.558304
1791.992188	-50.089294
1792.968750	-49.743317
1793.945312	-49.321785
1794.921875	-49.950535
1795.898438	-48.954529
1796.875000	-48.999908
1797.851562	-51.158657
1798.828125	-49.315060
1799.804688	-49.638260
1800.781250	-48.737896
1801.757812	-51.909199
1802.734375	-51.423744
1803.710938	-50.845974
1804.687500	-52.157696
1805.664062	-53.130886
1806.640625	-52.149815
1807.617188	-51.025242
1808.593750	-51.131985
1809.570312	-53.106667
1810.546875	-53.710979
1811.523438	-53.725510
1812.500000	-53.012623
1813.476562	-52.358063
1814.453125	-52.235275
1815.429688	-52.713963
1816.406250	-53.477547
1817.382812	-53.103001
1818.359375	-54.779980
1819.335938	-53.932751
1820.312500	-53.214565
1821.289062	-54.607124
1822.265625	-53.477638
1823.242188	-55.633781
1824.218750	-54.727676
1825.195312	-54.132812
1826.171875	-54.430058
1827.148438	-54.668564
1828.125000	-54.653008
1829.101562	-54.729843
1830.078125	-55.099884
1831.054688	-55.497261
1832.031250	-54.531727
1833.007812	-55.310604
1833.984375	-56.206474
1834.960938	-54.634548
1835.937500	-56.295597
1836.914062	-56.713013
1837.890625	-57.413242
1838.867188	-56.711571
1839.843750	-56.076157
1840.820312	-57.203117
1841.796875	-55.132149
1842.773438	-57.264141
1843.750000	-56.347576
1844.726562	-57.227005
1845.703125	-57.088223
1846.679688	-57.116772
1847.656250	-56.634270
1848.632812	-58.778698
1849.609375	-58.340412
1850.585938	-57.241917
1851.562500	-58.417248
1852.539062	-58.848457
1853.515625	-58.720715
1854.492188	-56.954330
1855.468750	-57.547852
1856.445312	-58.079254
1857.421875	-57.471355
1858.398438	-56.514336
1859.375000	-57.219666
1860.351562	-58.828651
1861.328125	-58.777222
1862.304688	-59.243889
1863.281250	-58.147823
1864.257812	-59.170166
1865.234375	-59.239342
1866.210938	-58.302670
1867.187500	-59.557865
1868.164062	-60.488224
1869.140625	-60.907166
1870.117188	-59.311462
1871.093750	-60.160221
1872.070312	-59.813465
1873.046875	-59.074486
1874.023438	-59.275131
1875.000000	-58.991894
1875.976562	-59.590378
1876.953125	-60.084137
1877.929688	-59.719158
1878.906250	-59.510429
1879.882812	-60.810986
1880.859375	-59.873016
1881.835938	-60.069283
1882.812500	-60.615883
1883.789062	-62.097870
1884.765625	-61.207104
1885.742188	-60.069481
1886.718750	-60.277935
1887.695312	-60.486130
1888.671875	-59.077862
1889.648438	-59.274338
1890.625000	-60.058010
1891.601562	-59.124149
1892.578125	-59.922066
1893.554688	-60.604675
1894.531250	-60.841152
1895.507812	-61.008465
1896.484375	-61.277493
1897.460938	-60.925121
1898.437500	-60.835861
1899.414062	-60.880180
1900.390625	-61.537640
1901.367188	-62.762390
1902.343750	-60.048283
1903.320312	-61.694420
1904.296875	-61.125320
1905.273438	-60.267704
1906.250000	-60.479374
1907.226562	-62.479916
1908.203125	-60.151005
1909.179688	-60.539410
1910.156250	-60.337795
1911.132812	-60.851051
1912.109375	-61.423805
1913.085938	-60.721050
1914.062500	-61.537178
1915.039062	-61.412560
1916.015625	-61.596199
1916.992188	-60.850304
1917.968750	-61.684624
1918.945312	-62.564720
1919.921875	-61.307438
1920.898438	-61.146519
1921.875000	-61.312336
1922.851562	-63.080299
1923.828125	-61.582214
1924.804688	-62.338150
1925.781250	-61.904976
1926.757812	-62.348034
1927.734375	-61.474274
1928.710938	-61.457024
1929.687500	-62.030979
1930.664062	-63.584976
1931.640625	-62.066895
1932.617188	-63.265728
1933.593750	-63.631905
1934.570312	-61.556419
1935.546875	-62.463142
1936.523438	-62.242256
1937.500000	-62.351814
1938.476562	-62.376034
1939.453125	-62.198483
1940.429688	-62.646938
1941.406250	-62.299423
1942.382812	-62.233681
1943.359375	-63.514080
1944.335938	-62.155594
1945.312500	-63.219170
1946.289062	-62.506760
1947.265625	-62.624660
1948.242188	-62.423538
1949.218750	-62.322903
1950.195312	-63.019527
1951.171875	-63.508198
1952.148438	-64.281441
1953.125000	-62.960472
1954.101562	-62.195271
1955.078125	-63.299892
1956.054688	-62.585163
1957.031250	-61.908421
1958.007812	-63.733677
1958.984375	-62.355152
1959.960938	-63.853920
1960.937500	-63.259830
1961.914062	-63.541096
1962.890625	-63.743469
1963.867188	-62.888500
1964.843750	-62.498020
1965.820312	-62.587013
1966.796875	-63.378216
1967.773438	-63.234646
1968.750000	-61.993492
1969.726562	-62.976604
1970.703125	-62.676792
1971.679688	-63.220276
1972.656250	-63.387913
1973.632812	-62.289303
1974.609375	-62.942795
1975.585938	-62.656769
1976.562500	-63.524956
1977.539062	-62.185127
1978.515625	-63.230015
1979.492188	-64.201294
1980.468750	-63.596241
1981.445312	-62.978058
1982.421875	-63.514046
1983.398438	-63.630810
1984.375000	-64.586517
1985.351562	-64.299156
1986.328125	-63.788509
1987.304688	-62.784286
1988.281250	-62.835247
1989.257812	-63.408012
1990.234375	-63.414898
1991.210938	-64.174568
1992.187500	-64.008888
1993.164062	-65.143837
1994.140625	-64.153610
1995.117188	-62.528378
1996.093750	-62.242435
1997.070312	-65.055763
1998.046875	-63.597359
1999.023438	-64.132141
2000.000000	-65.237839
2000.976562	-64.144768
2001.953125	-63.391026
2002.929688	-62.365395
2003.906250	-63.461670
2004.882812	-63.066685
2005.859375	-63.399326
2006.835938	-63.555134
2007.812500	-64.587013
2008.789062	-64.085175
2009.765625	-63.959667
2010.742188	-64.056145
2011.718750	-63.603405
2012.695312	-63.458050
2013.671875	-64.070549
2014.648438	-64.042519
2015.625000	-64.174858
2016.601562	-64.186981
2017.578125	-64.302887
2018.554688	-63.648674
2019.531250	-64.197701
2020.507812	-63.200233
2021.484375	-63.211372
2022.460938	-64.058762
2023.437500	-63.467552
2024.414062	-63.158249
2025.390625	-62.985474
2026.367188	-63.494705
2027.343750	-64.680809
2028.320312	-64.329361
2029.296875	-63.659046
2030.273438	-64.063354
2031.250000	-64.920578
2032.226562	-64.487221
2033.203125	-63.904007
2034.179688	-63.484108
2035.156250	-64.078903
2036.132812	-62.850227
2037.109375	-63.339890
2038.085938	-62.810230
2039.062500	-65.022507
2040.039062	-63.549763
2041.015625	-63.100998
2041.992188	-64.381844
2042.968750	-63.963619
2043.945312	-63.760845
2044.921875	-63.908581
2045.898438	-63.674400
2046.875000	-63.743549
2047.851562	-63.575333
2048.828125	-63.676247
2049.804688	-64.757393
2050.781250	-63.376408
2051.757812	-63.448280
2052.734375	-63.328133
2053.710938	-63.271648
2054.687500	-64.368103
2055.664062	-64.274361
2056.640625	-61.672565
2057.617188	-62.911148
2058.593750	-63.665237
2059.570312	-63.735748
2060.546875	-63.679619
2061.523438	-63.260998
2062.500000	-62.295349
2063.476562	-64.351662
2064.453125	-64.295059
2065.429688	-63.878307
2066.406250	-64.546204
2067.382812	-63.588314
2068.359375	-63.494946
2069.335938	-62.955009
2070.312500	-64.049706
2071.289062	-63.865936
2072.265625	-63.516846
2073.242188	-62.396885
2074.218750	-63.443535
2075.195312	-63.195007
2076.171875	-62.815506
2077.148438	-65.249229
2078.125000	-63.256649
2079.101562	-64.458931
2080.078125	-63.642464
2081.054688	-64.566422
2082.031250	-62.832779
2083.007812	-63.863968
2083.984375	-62.659168
2084.960938	-63.480953
2085.937500	-64.090836
2086.914062	-63.683712
2087.890625	-63.209721
2088.867188	-62.799587
2089.843750	-63.353085
2090.820312	-62.408348
2091.796875	-62.283604
2092.773438	-62.406662
2093.750000	-63.672935
2094.726562	-64.147934
2095.703125	-63.784966
2096.679688	-63.322830
2097.656250	-63.779682
2098.632812	-62.347904
2099.609375	-62.390545
2100.585938	-63.877312
2101.562500	-63.138142
2102.539062	-62.222775
2103.515625	-62.898415
2104.492188	-62.353710
2105.468750	-62.126362
2106.445312	-63.723690
2107.421875	-63.455078
2108.398438	-63.016037
2109.375000	-62.729763
2110.351562	-62.845947
2111.328125	-63.387775
2112.304688	-62.714104
2113.281250	-62.922741
2114.257812	-63.345226
2115.234375	-62.645279
2116.210938	-61.788490
2117.187500	-64.053284
2118.164062	-62.959930
2119.140625	-61.379299
2120.117188	-63.217579
2121.093750	-61.695446
2122.070312	-62.823616
2123.046875	-62.631710
2124.023438	-61.146431
2125.000000	-62.206436
2125.976562	-61.368618
2126.953125	-63.752552
2127.929688	-62.896008
2128.906250	-61.361626
2129.882812	-63.257309
2130.859375	-63.436878
2131.835938	-62.542683
2132.812500	-62.517944
2133.789062	-63.387817
2134.765625	-62.941833
2135.742188	-61.263779
2136.718750	-62.376450
2137.695312	-62.232117
2138.671875	-62.429611
2139.648438	-63.915733
2140.625000	-63.008671
2141.601562	-63.030647
2142.578125	-62.536407
2143.554688	-62.549484
2144.531250	-62.996059
2145.507812	-62.643784
2146.484375	-61.317760
2147.460938	-61.879204
2148.437500	-61.768475
2149.414062	-61.942997
2150.390625	-60.778961
2151.367188	-62.329578
2152.343750	-62.581791
2153.320312	-61.251736
2154.296875	-63.327290
2155.273438	-61.505222
2156.250000	-61.517063
2157.226562	-61.601082
2158.203125	-61.685696
2159.179688	-63.067387
2160.156250	-62.856636
2161.132812	-62.803112
2162.109375	-60.748520
2163.085938	-61.474831
2164.062500	-60.561947
2165.039062	-61.382103
2166.015625	-62.095566
2166.992188	-61.260921
2167.968750	-61.428772
2168.945312	-61.017143
2169.921875	-60.253307
2170.898438	-61.442188
2171.875000	-60.872360
2172.851562	-60.747551
2173.828125	-59.586052
2174.804688	-61.428734
2175.781250	-62.414997
2176.757812	-61.596584
2177.734375	-60.440594
2178.710938	-62.287746
2179.687500	-61.526810
2180.664062	-62.614017
2181.640625	-61.205421
2182.617188	-60.870399
2183.593750	-60.324795
2184.570312	-60.196655
2185.546875	-60.578773
2186.523438	-61.159573
2187.500000	-61.669353
2188.476562	-59.957405
2189.453125	-59.466221
2190.429688	-61.908215
2191.406250	-61.220673
2192.382812	-60.603977
2193.359375	-59.943516
2194.335938	-61.246033
2195.312500	-61.040539
2196.289062	-60.001583
2197.265625	-59.978249
2198.242188	-59.560207
2199.218750	-58.980339
2200.195312	-60.369232
2201.171875	-59.357224
2202.148438	-60.084484
2203.125000	-60.139252
2204.101562	-59.555332
2205.078125	-59.411297
2206.054688	-59.635948
2207.031250	-60.537697
2208.007812	-60.272034
2208.984375	-59.144871
2209.960938	-58.911072
2210.937500	-59.576469
2211.914062	-59.668213
2212.890625	-58.980366
2213.867188	-58.805340
2214.843750	-59.195705
2215.820312	-58.772270
2216.796875	-58.608486
2217.773438	-58.713058
2218.750000	-58.530891
2219.726562	-58.322701
2220.703125	-58.393253
2221.679688	-59.005596
2222.656250	-58.043072
2223.632812	-57.477287
2224.609375	-58.980175
2225.585938	-59.244293
2226.562500	-57.486019
2227.539062	-58.324749
2228.515625	-58.146355
2229.492188	-57.901505
2230.468750	-58.163521
2231.445312	-59.225029
2232.421875	-58.421871
2233.398438	-57.405521
2234.375000	-58.495602
2235.351562	-58.275059
2236.328125	-58.731094
2237.304688	-57.113998
2238.281250	-57.353611
2239.257812	-57.480446
2240.234375	-57.825394
2241.210938	-57.528828
2242.187500	-58.456642
2243.164062	-56.594479
2244.140625	-57.459721
2245.117188	-57.715282
2246.093750	-57.863338
2247.070312	-56.461716
2248.046875	-57.739147
2249.023438	-57.307236
2250.000000	-56.470528
2250.976562	-55.636349
2251.953125	-56.327309
2252.929688	-57.797180
2253.906250	-56.381912
2254.882812	-57.447567
2255.859375	-56.031788
2256.835938	-56.258389
2257.812500	-57.210350
2258.789062	-57.260746
2259.765625	-56.215557
2260.742188	-56.962368
2261.718750	-55.548996
2262.695312	-56.181877
2263.671875	-56.505360
2264.648438	-55.293194
2265.625000	-54.835648
2266.601562	-56.018055
2267.578125	-55.106564
2268.554688	-55.454208
2269.531250	-54.633049
2270.507812	-55.300087
2271.484375	-55.595001
2272.460938	-54.657215
2273.437500	-55.142502
2274.414062	-55.132919
2275.390625	-55.305225
2276.367188	-54.981636
2277.343750	-55.377670
2278.320312	-54.106354
2279.296875	-53.732788
2280.273438	-54.679565
2281.250000	-55.566814
2282.226562	-55.287991
2283.203125	-54.204082
2284.179688	-53.859421
2285.156250	-56.179874
2286.132812	-53.413181
2287.109375	-53.714996
2288.085938	-53.468727
2289.062500	-53.552010
2290.039062	-53.695984
2291.015625	-53.349178
2291.992188	-52.081608
2292.968750	-52.532780
2293.945312	-52.646862
2294.921875	-53.467323
2295.898438	-53.072174
2296.875000	-53.105755
2297.851562	-51.651386
2298.828125	-53.342148
2299.804688	-52.359058
2300.781250	-51.977566
2301.757812	-51.478748
2302.734375	-51.183296
2303.710938	-51.414295
2304.687500	-50.777790
2305.664062	-52.647789
2306.640625	-51.842957
2307.617188	-51.302155
2308.593750	-50.779480
2309.570312	-50.853035
2310.546875	-49.269291
2311.523438	-50.960140
2312.500000	-50.210506
2313.476562	-50.623528
2314.453125	-50.210785
2315.429688	-49.798439
2316.406250	-49.081577
2317.382812	-50.517822
2318.359375	-51.167248
2319.335938	-49.296024
2320.312500	-49.242092
2321.289062	-48.926563
2322.265625	-48.345356
2323.242188	-49.051956
2324.218750	-48.050175
2325.195312	-49.135433
2326.171875	-48.357487
2327.148438	-47.561550
2328.125000	-46.621895
2329.101562	-48.169769
2330.078125	-47.009853
2331.054688	-46.295021
2332.031250	-46.351868
2333.007812	-47.690525
2333.984375	-46.852127
2334.960938	-47.458344
2335.937500	-46.952595
2336.914062	-47.614323
2337.890625	-46.893990
2338.867188	-45.503460
2339.843750	-45.155155
2340.820312	-45.774239
2341.796875	-45.843410
2342.773438	-45.682178
2343.750000	-45.653797
2344.726562	-44.463245
2345.703125	-44.859516
2346.679688	-43.389118
2347.656250	-44.788769
2348.632812	-46.086544
2349.609375	-45.330074
2350.585938	-45.074841
2351.562500	-43.590317
2352.539062	-43.386326
2353.515625	-44.909210
2354.492188	-43.505035
2355.468750	-44.101254
2356.445312	-43.879288
2357.421875	-43.312954
2358.398438	-44.050007
2359.375000	-44.272820
2360.351562	-44.076801
2361.328125	-43.975414
2362.304688	-43.981293
2363.281250	-43.754234
2364.257812	-43.666553
2365.234375	-42.945286
2366.210938	-44.206642
2367.187500	-43.692604
2368.164062	-43.276619
2369.140625	-44.375290
2370.117188	-43.649704
2371.093750	-43.358158
2372.070312	-44.547470
2373.046875	-44.818207
2374.023438	-43.838188
2375.000000	-44.413097
2375.976562	-44.253490
2376.953125	-45.755875
2377.929688	-45.181759
2378.906250	-44.669563
2379.882812	-46.370598
2380.859375	-45.204235
2381.835938	-46.060261
2382.812500	-45.438400
2383.789062	-46.167904
2384.765625	-45.928181
2385.742188	-46.094589
2386.718750	-45.446079
2387.695312	-46.638599
2388.671875	-47.667965
2389.648438	-46.585808
2390.625000	-47.444164
2391.601562	-46.197659
2392.578125	-46.091293
2393.554688	-46.077320
2394.531250	-47.022202
2395.507812	-47.566685
2396.484375	-47.226936
2397.460938	-46.434921
2398.437500	-47.209133
2399.414062	-48.580658
2400.390625	-47.996220
2401.367188	-47.830700
2402.343750	-48.140945
2403.320312	-47.886196
2404.296875	-47.424557
2405.273438	-49.022865
2406.250000	-49.464115
2407.226562	-48.030487
2408.203125	-50.095898
2409.179688	-50.552383
2410.156250	-50.202526
2411.132812	-49.311684
2412.109375	-48.716286
2413.085938	-49.854389
2414.062500	-48.647064
2415.039062	-49.353195
2416.015625	-48.847767
2416.992188	-49.622425
2417.968750	-49.804539
2418.945312	-49.637482
2419.921875	-50.447777
2420.898438	-49.667015
2421.875000	-50.509407
2422.851562	-51.600002
2423.828125	-51.374187
2424.804688	-50.357727
2425.781250	-50.388126
2426.757812	-52.513306
2427.734375	-50.966766
2428.710938	-52.347763
2429.687500	-50.791748
2430.664062	-50.926922
2431.640625	-51.335140
2432.617188	-51.723282
2433.593750	-52.125729
2434.570312	-52.395725
2435.546875	-52.866497
2436.523438	-52.406620
2437.500000	-53.471386
2438.476562	-52.368324
2439.453125	-51.845371
2440.429688	-54.353031
2441.406250	-52.750214
2442.382812	-53.448586
2443.359375	-53.481274
2444.335938	-52.967793
2445.312500	-53.463707
2446.289062	-53.715408
2447.265625	-53.176575
2448.242188	-53.033543
2449.218750	-53.688831
2450.195312	-53.237209
2451.171875	-52.701805
2452.148438	-52.403683
2453.125000	-52.717136
2454.101562	-53.661865
2455.078125	-53.596703
2456.054688	-54.491676
2457.031250	-53.028488
2458.007812	-53.081779
2458.984375	-55.136597
2459.960938	-53.725689
2460.937500	-54.368095
2461.914062	-53.596142
2462.890625	-53.830799
2463.867188	-53.369167
2464.843750	-53.160610
2465.820312	-54.788052
2466.796875	-53.678108
2467.773438	-55.480247
2468.750000	-55.203300
2469.726562	-55.599159
2470.703125	-54.924377
2471.679688	-55.472477
2472.656250	-55.960613
2473.632812	-53.483276
2474.609375	-55.978394
2475.585938	-55.994141
2476.562500	-54.193630
2477.539062	-56.139725
2478.515625	-55.434319
2479.492188	-55.169811
2480.468750	-55.151432
2481.445312	-55.705040
2482.421875	-55.398949
2483.398438	-55.586620
2484.375000	-55.884285
2485.351562	-55.575790
2486.328125	-54.592060
2487.304688	-54.801559
2488.281250	-55.939713
2489.257812	-54.967587
2490.234375	-54.951717
2491.210938	-55.968662
2492.187500	-56.328148
2493.164062	-55.870892
2494.140625	-54.928242
2495.117188	-56.330429
2496.093750	-55.986183
2497.070312	-55.248352
2498.046875	-55.936760
2499.023438	-56.345894
2500.000000	-56.694481
2500.976562	-55.383698
2501.953125	-56.445145
2502.929688	-56.397732
2503.906250	-56.493584
2504.882812	-55.863434
2505.859375	-57.073925
2506.835938	-56.819736
2507.812500	-56.284088
2508.789062	-57.326286
2509.765625	-57.153629
2510.742188	-57.458221
2511.718750	-56.727406
2512.695312	-55.569622
2513.671875	-57.061123
2514.648438	-57.335777
2515.625000	-56.978153
2516.601562	-56.651257
2517.578125	-56.463379
2518.554688	-56.166225
2519.531250	-57.553082
2520.507812	-57.207855
2521.484375	-57.804539
2522.460938	-57.269699
2523.437500	-57.410328
2524.414062	-56.910744
2525.390625	-57.130615
2526.367188	-56.862297
2527.343750	-57.266899
2528.320312	-56.327805
2529.296875	-56.294773
2530.273438	-57.780521
2531.250000	-57.282372
2532.226562	-56.250587
2533.203125	-57.171562
2534.179688	-58.768501
2535.156250	-58.807240
2536.132812	-57.600201
2537.109375	-58.317478
2538.085938	-56.819508
2539.062500	-57.109211
2540.039062	-58.948189
2541.015625	-56.599354
2541.992188	-57.994701
2542.968750	-56.909370
2543.945312	-56.943176
2544.921875	-58.663231
2545.898438	-58.171898
2546.875000	-57.118134
2547.851562	-57.641888
2548.828125	-57.567154
2549.804688	-56.499779
2550.781250	-56.314709
2551.757812	-57.537148
2552.734375	-57.650452
2553.710938	-55.986557
2554.687500	-57.891296
2555.664062	-60.087673
2556.640625	-57.965412
2557.617188	-57.611591
2558.593750	-56.913498
2559.570312	-58.077400
2560.546875	-57.544487
2561.523438	-58.772625
2562.500000	-59.425934
2563.476562	-58.166245
2564.453125	-56.422977
2565.429688	-57.929100
2566.406250	-58.978588
2567.382812	-57.840000
2568.359375	-57.957050
2569.335938	-57.697960
2570.312500	-57.914345
2571.289062	-57.240215
2572.265625	-58.203243
2573.242188	-58.675941
2574.218750	-57.885590
2575.195312	-58.148518
2576.171875	-57.426121
2577.148438	-57.480358
2578.125000	-56.652439
2579.101562	-58.163765
2580.078125	-57.419422
2581.054688	-57.747749
2582.031250	-58.300014
2583.007812	-58.463634
2583.984375	-58.300873
2584.960938	-57.759228
2585.937500	-59.303085
2586.914062	-58.112198
2587.890625	-56.964764
2588.867188	-58.462975
2589.843750	-58.822678
2590.820312	-57.997494
2591.796875	-56.926861
2592.773438	-58.696587
2593.750000	-57.098267
2594.726562	-59.501759
2595.703125	-59.105038
2596.679688	-58.051872
2597.656250	-56.930420
2598.632812	-56.771080
2599.609375	-58.182659
2600.585938	-57.954746
2601.562500	-59.086617
2602.539062	-58.691330
2603.515625	-57.595985
2604.492188	-59.715714
2605.468750	-58.658722
2606.445312	-56.722717
2607.421875	-58.651955
2608.398438	-56.317425
2609.375000	-57.533428
2610.351562	-57.692760
2611.328125	-58.689842
2612.304688	-58.777508
2613.281250	-57.123791
2614.257812	-58.411133
2615.234375	-58.158875
2616.210938	-57.981579
2617.187500	-59.207130
2618.164062	-57.704849
2619.140625	-57.398968
2620.117188	-58.017033
2621.093750	-57.396076
2622.070312	-59.196487
2623.046875	-58.937801
2624.023438	-58.413513
2625.000000	-58.317837
2625.976562	-57.972034
2626.953125	-58.799026
2627.929688	-57.750992
2628.906250	-58.168026
2629.882812	-58.113941
2630.859375	-56.614857
2631.835938	-57.467983
2632.812500	-57.672142
2633.789062	-58.193516
2634.765625	-59.239101
2635.742188	-58.408833
2636.718750	-58.398376
2637.695312	-59.313873
2638.671875	-58.643692
2639.648438	-57.344856
2640.625000	-58.468948
2641.601562	-57.495266
2642.578125	-57.976509
2643.554688	-57.437992
2644.531250	-56.544376
2645.507812	-57.279594
2646.484375	-58.655823
2647.460938	-56.651688
2648.437500	-57.547215
2649.414062	-57.581100
2650.390625	-57.016026
2651.367188	-57.903378
2652.343750	-56.848633
2653.320312	-58.999516
2654.296875	-58.978519
2655.273438	-57.389488
2656.250000	-56.151783
2657.226562	-57.530270
2658.203125	-57.027405
2659.179688	-57.415985
2660.156250	-57.550045
2661.132812	-57.910965
2662.109375	-58.372150
2663.085938	-58.676960
2664.062500	-59.479443
2665.039062	-56.991768
2666.015625	-58.303444
2666.992188	-58.375618
2667.968750	-56.612656
2668.945312	-56.970108
2669.921875	-57.984528
2670.898438	-57.857014
2671.875000	-57.021824
2672.851562	-57.289715
2673.828125	-58.819736
2674.804688	-57.637630
2675.781250	-58.138012
2676.757812	-58.725658
2677.734375	-58.777679
2678.710938	-57.396019
2679.687500	-57.808731
2680.664062	-57.584957
2681.640625	-57.732059
2682.617188	-58.127991
2683.593750	-57.548584
2684.570312	-58.343189
2685.546875	-59.366745
2686.523438	-58.841732
2687.500000	-56.682133
2688.476562	-57.963802
2689.453125	-57.981785
2690.429688	-58.594006
2691.406250	-58.090683
2692.382812	-57.727840
2693.359375	-57.509132
2694.335938	-58.752426
2695.312500	-57.609764
2696.289062	-57.628639
2697.265625	-56.968578
2698.242188	-56.687973
2699.218750	-57.220024
2700.195312	-57.845478
2701.171875	-57.308685
2702.148438	-57.572990
2703.125000	-56.110645
2704.101562	-57.812176
2705.078125	-57.692047
2706.054688	-56.287857
2707.031250	-57.602646
2708.007812	-56.660477
2708.984375	-55.784336
2709.960938	-57.172523
2710.937500	-56.744320
2711.914062	-57.753574
2712.890625	-57.257221
2713.867188	-57.497883
2714.843750	-57.494720
2715.820312	-56.572086
2716.796875	-56.327648
2717.773438	-57.294029
2718.750000	-57.071655
2719.726562	-57.388371
2720.703125	-56.435909
2721.679688	-56.925667
2722.656250	-56.024677
2723.632812	-58.770401
2724.609375	-56.126202
2725.585938	-56.916473
2726.562500	-56.078506
2727.539062	-55.972961
2728.515625	-56.547314
2729.492188	-56.440880
2730.468750	-56.194412
2731.445312	-56.931625
2732.421875	-57.949673
2733.398438	-57.465633
2734.375000	-56.035511
2735.351562	-56.194630
2736.328125	-56.531288
2737.304688	-56.739883
2738.281250	-55.738873
2739.257812	-56.267525
2740.234375	-56.551163
2741.210938	-57.080696
2742.187500	-57.831692
2743.164062	-56.464947
2744.140625	-56.673996
2745.117188	-54.983982
2746.093750	-56.134155
2747.070312	-56.901073
2748.046875	-56.481155
2749.023438	-55.822083
2750.000000	-55.547905
2750.976562	-57.024139
2751.953125	-55.492550
2752.929688	-55.033859
2753.906250	-56.319321
2754.882812	-55.209854
2755.859375	-56.634144
2756.835938	-56.089207
2757.812500	-55.332947
2758.789062	-54.181332
2759.765625	-55.546555
2760.742188	-55.083138
2761.718750	-54.572124
2762.695312	-54.810627
2763.671875	-55.128956
2764.648438	-56.010719
2765.625000	-54.979610
2766.601562	-55.796303
2767.578125	-54.044872
2768.554688	-55.421970
2769.531250	-55.428074
2770.507812	-54.655563
2771.484375	-53.872944
2772.460938	-55.768929
2773.437500	-56.538391
2774.414062	-54.912189
2775.390625	-54.414837
2776.367188	-54.597984
2777.343750	-54.883163
2778.320312	-54.907444
2779.296875	-55.274895
2780.273438	-56.111752
2781.250000	-55.704403
2782.226562	-54.632339
2783.203125	-55.714954
2784.179688	-55.230556
2785.156250	-55.076454
2786.132812	-54.888531
2787.109375	-55.502300
2788.085938	-54.612057
2789.062500	-56.675350
2790.039062	-54.461765
2791.015625	-54.322697
2791.992188	-54.717834
2792.968750	-54.724682
2793.945312	-53.864681
2794.921875	-53.915257
2795.898438	-53.785103
2796.875000	-54.916943
2797.851562	-54.079407
2798.828125	-54.492634
2799.804688	-54.160828
2800.781250	-54.209862
2801.757812	-54.085037
2802.734375	-53.672497
2803.710938	-54.612896
2804.687500	-54.887657
2805.664062	-54.069214
2806.640625	-52.800385
2807.617188	-52.680199
2808.593750	-53.690548
2809.570312	-53.966068
2810.546875	-54.446781
2811.523438	-54.253365
2812.500000	-53.954182
2813.476562	-53.366611
2814.453125	-53.269386
2815.429688	-52.803047
2816.406250	-52.865345
2817.382812	-53.068428
2818.359375	-52.353458
2819.335938	-51.652481
2820.312500	-51.482491
2821.289062	-52.818359
2822.265625	-52.430424
2823.242188	-51.347862
2824.218750	-51.744591
2825.195312	-52.680187
2826.171875	-52.357944
2827.148438	-53.242344
2828.125000	-52.099602
2829.101562	-51.672112
2830.078125	-53.038212
2831.054688	-50.848381
2832.031250	-50.987999
2833.007812	-51.340088
2833.984375	-51.292458
2834.960938	-52.431568
2835.937500	-51.601822
2836.914062	-51.283482
2837.890625	-52.036846
2838.867188	-52.453186
2839.843750	-51.320816
2840.820312	-51.099018
2841.796875	-50.022442
2842.773438	-51.179562
2843.750000	-51.134129
2844.726562	-51.348362
2845.703125	-50.570408
2846.679688	-50.040527
2847.656250	-51.064587
2848.632812	-50.532993
2849.609375	-50.104591
2850.585938	-49.692902
2851.562500	-50.870178
2852.539062	-50.420158
2853.515625	-50.159557
2854.492188	-50.878422
2855.468750	-49.076668
2856.445312	-49.059757
2857.421875	-50.940907
2858.398438	-49.673019
2859.375000	-50.465622
2860.351562	-50.319328
2861.328125	-49.038063
2862.304688	-49.846287
2863.281250	-49.687084
2864.257812	-48.016865
2865.234375	-48.411797
2866.210938	-49.413311
2867.187500	-49.238400
2868.164062	-47.660393
2869.140625	-48.161007
2870.117188	-48.320770
2871.093750	-47.865440
2872.070312	-48.507195
2873.046875	-47.628765
2874.023438	-47.971226
2875.000000	-48.243259
2875.976562	-48.170212
2876.953125	-48.489349
2877.929688	-47.802025
2878.906250	-46.281418
2879.882812	-48.160439
2880.859375	-47.067986
2881.835938	-46.666939
2882.812500	-46.248440
2883.789062	-46.772224
2884.765625	-47.188320
2885.742188	-46.860718
2886.718750	-46.125320
2887.695312	-45.782173
2888.671875	-46.292969
2889.648438	-46.288891
2890.625000	-46.490192
2891.601562	-47.115818
2892.578125	-46.370678
2893.554688	-45.643192
2894.531250	-45.149040
2895.507812	-45.828472
2896.484375	-45.760769
2897.460938	-45.572659
2898.437500	-44.707340
2899.414062	-43.898056
2900.390625	-43.772263
2901.367188	-44.345261
2902.343750	-44.536785
2903.320312	-44.100113
2904.296875	-45.223049
2905.273438	-44.962257
2906.250000	-43.911140
2907.226562	-43.267094
2908.203125	-43.009571
2909.179688	-43.749863
2910.156250	-45.778103
2911.132812	-43.794586
2912.109375	-42.459286
2913.085938	-43.605949
2914.062500	-43.259670
2915.039062	-43.528408
2916.015625	-43.524860
2916.992188	-42.932014
2917.968750	-41.546883
2918.945312	-42.176418
2919.921875	-41.838757
2920.898438	-41.199158
2921.875000	-41.155849
2922.851562	-42.852028
2923.828125	-42.241257
2924.804688	-41.221539
2925.781250	-40.076988
2926.757812	-40.286636
2927.734375	-40.847683
2928.710938	-41.428612
2929.687500	-40.751999
2930.664062	-40.304443
2931.640625	-41.903641
2932.617188	-40.941231
2933.593750	-40.516808
2934.570312	-39.345985
2935.546875	-40.413597
2936.523438	-39.458878
2937.500000	-38.719051
2938.476562	-39.944286
2939.453125	-38.233044
2940.429688	-39.196445
2941.406250	-38.560883
2942.382812	-38.850559
2943.359375	-38.145641
2944.335938	-38.464046
2945.312500	-38.901070
2946.289062	-38.162567
2947.265625	-38.924999
2948.242188	-39.450008
2949.218750	-38.959370
2950.195312	-39.261700
2951.171875	-38.291660
2952.148438	-39.181580
2953.125000	-38.718605
2954.101562	-38.052731
2955.078125	-39.691013
2956.054688	-39.000683
2957.031250	-39.566193
2958.007812	-39.646770
2958.984375	-39.670708
2959.960938	-40.674881
2960.937500	-38.680164
2961.914062	-39.620087
2962.890625	-40.417618
2963.867188	-40.013390
2964.843750	-39.986305
2965.820312	-40.428158
2966.796875	-40.818336
2967.773438	-41.179699
2968.750000	-40.858059
2969.726562	-41.757847
2970.703125	-42.473785
2971.679688	-41.583248
2972.656250	-41.891346
2973.632812	-42.529953
2974.609375	-42.882591
2975.585938	-41.457943
2976.562500	-41.293541
2977.539062	-42.409271
2978.515625	-42.373405
2979.492188	-41.905880
2980.468750	-44.052032
2981.445312	-42.007767
2982.421875	-42.959576
2983.398438	-42.863735
2984.375000	-43.855087
2985.351562	-44.492897
2986.328125	-43.984447
2987.304688	-43.990021
2988.281250	-43.360783
2989.257812	-44.572052
2990.234375	-45.191353
2991.210938	-44.523369
2992.187500	-43.466236
2993.164062	-43.981312
2994.140625	-44.802162
2995.117188	-45.321163
2996.093750	-46.195217
2997.070312	-44.923931
2998.046875	-46.039185
2999.023438	-46.056114
3000.000000	-45.225487
3000.976562	-45.004238
3001.953125	-45.717079
3002.929688	-46.497311
3003.906250	-45.667530
3004.882812	-46.588879
3005.859375	-45.763439
3006.835938	-44.223530
3007.812500	-47.031525
3008.789062	-46.395336
3009.765625	-46.365639
3010.742188	-46.285625
3011.718750	-45.889977
3012.695312	-46.985497
3013.671875	-46.916588
3014.648438	-47.230293
3015.625000	-47.829487
3016.601562	-47.666039
3017.578125	-46.883850
3018.554688	-47.165524
3019.531250	-47.160583
3020.507812	-48.497425
3021.484375	-48.662991
3022.460938	-47.854336
3023.437500	-48.448441
3024.414062	-47.435406
3025.390625	-49.210796
3026.367188	-47.910736
3027.343750	-48.641220
3028.320312	-47.493313
3029.296875	-48.609570
3030.273438	-48.379227
3031.250000	-48.707924
3032.226562	-49.225414
3033.203125	-49.812447
3034.179688	-49.364265
3035.156250	-48.565022
3036.132812	-49.110973
3037.109375	-48.414001
3038.085938	-49.291901
3039.062500	-49.352798
3040.039062	-48.680820
3041.015625	-48.830112
3041.992188	-49.176426
3042.968750	-48.769428
3043.945312	-49.979145
3044.921875	-50.516048
3045.898438	-49.616852
3046.875000	-49.458935
3047.851562	-49.766220
3048.828125	-50.928425
3049.804688	-49.378578
3050.781250	-50.022209
3051.757812	-49.899490
3052.734375	-50.728176
3053.710938	-50.482731
3054.687500	-50.455872
3055.664062	-51.394463
3056.640625	-49.593021
3057.617188	-50.657997
3058.593750	-49.928104
3059.570312	-51.099220
3060.546875	-50.871986
3061.523438	-49.900585
3062.500000	-50.508587
3063.476562	-51.179195
3064.453125	-50.107269
3065.429688	-51.351940
3066.406250	-51.932907
3067.382812	-50.973225
3068.359375	-51.237637
3069.335938	-51.542057
3070.312500	-52.309704
3071.289062	-50.696064
3072.265625	-50.086411
3073.242188	-51.261730
3074.218750	-51.878258
3075.195312	-51.928024
3076.171875	-50.383144
3077.148438	-50.866020
3078.125000	-51.499413
3079.101562	-51.525478
3080.078125	-50.533615
3081.054688	-51.646259
3082.031250	-51.854885
3083.007812	-50.278633
3083.984375	-53.150623
3084.960938	-52.379200
3085.937500	-51.836582
3086.914062	-51.946018
3087.890625	-53.461174
3088.867188	-52.505222
3089.843750	-51.706398
3090.820312	-52.873638
3091.796875	-51.325550
3092.773438	-52.366230
3093.750000	-53.133560
3094.726562	-52.085800
3095.703125	-52.261623
3096.679688	-51.926888
3097.656250	-52.742966
3098.632812	-51.464993
3099.609375	-52.032059
3100.585938	-51.705509
3101.562500	-51.644733
3102.539062	-51.621601
3103.515625	-52.122166
3104.492188	-52.779015
3105.468750	-51.920395
3106.445312	-52.254814
3107.421875	-52.325718
3108.398438	-52.595264
3109.375000	-53.046227
3110.351562	-52.511475
3111.328125	-52.957478
3112.304688	-52.478176
3113.281250	-52.135586
3114.257812	-51.695103
3115.234375	-52.131519
3116.210938	-52.870304
3117.187500	-53.995514
3118.164062	-52.433018
3119.140625	-51.435696
3120.117188	-52.328892
3121.093750	-52.510704
3122.070312	-52.916733
3123.046875	-52.623730
3124.023438	-53.139015
3125.000000	-53.413219
3125.976562	-51.234352
3126.953125	-53.153835
3127.929688	-54.044144
3128.906250	-53.448372
3129.882812	-52.842834
3130.859375	-52.783146
3131.835938	-52.896141
3132.812500	-52.904095
3133.789062	-53.541229
3134.765625	-53.386654
3135.742188	-53.020721
3136.718750	-53.028107
3137.695312	-53.126282
3138.671875	-54.631676
3139.648438	-52.807877
3140.625000	-53.875729
3141.601562	-53.651901
3142.578125	-52.960079
3143.554688	-54.468182
3144.531250	-52.902725
3145.507812	-53.564991
3146.484375	-54.112846
3147.460938	-52.368679
3148.437500	-52.858730
3149.414062	-53.200638
3150.390625	-53.939198
3151.367188	-53.566631
3152.343750	-53.060432
3153.320312	-53.637802
3154.296875	-52.750805
3155.273438	-53.251022
3156.250000	-54.209732
3157.226562	-52.727127
3158.203125	-52.550453
3159.179688	-53.632576
3160.156250	-54.256046
3161.132812	-55.268097
3162.109375	-53.357452
3163.085938	-53.964260
3164.062500	-54.931515
3165.039062	-54.432159
3166.015625	-54.153603
3166.992188	-53.509033
3167.968750	-54.342716
3168.945312	-53.550583
3169.921875	-52.664886
3170.898438	-53.185741
3171.875000	-53.931293
3172.851562	-54.036049
3173.828125	-53.910927
3174.804688	-54.947639
3175.781250	-54.441223
3176.757812	-54.010605
3177.734375	-53.210464
3178.710938	-53.850155
3179.687500	-52.984795
3180.664062	-53.808922
3181.640625	-53.428528
3182.617188	-53.476498
3183.593750	-53.939320
3184.570312	-52.883907
3185.546875	-54.574944
3186.523438	-53.967815
3187.500000	-53.340496
3188.476562	-53.516739
3189.453125	-53.869648
3190.429688	-53.190990
3191.406250	-54.073109
3192.382812	-56.040947
3193.359375	-54.773312
3194.335938	-54.778172
3195.312500	-55.280312
3196.289062	-54.354752
3197.265625	-53.408218
3198.242188	-55.636189
3199.218750	-54.176346
3200.195312	-54.805458
3201.171875	-53.592068
3202.148438	-54.390755
3203.125000	-55.044617
3204.101562	-54.038868
3205.078125	-54.215824
3206.054688	-54.109810
3207.031250	-54.255859
3208.007812	-53.535973
3208.984375	-54.045414
3209.960938	-54.768120
3210.937500	-53.575436
3211.914062	-53.706020
3212.890625	-55.366295
3213.867188	-53.953903
3214.843750	-55.037834
3215.820312	-54.552006
3216.796875	-54.509491
3217.773438	-54.084141
3218.750000	-53.914230
3219.726562	-54.947742
3220.703125	-54.501831
3221.679688	-55.448639
3222.656250	-54.167458
3223.632812	-53.887074
3224.609375	-54.935822
3225.585938	-55.001163
3226.562500	-55.747704
3227.539062	-55.634228
3228.515625	-54.816406
3229.492188	-54.085587
3230.468750	-54.527908
3231.445312	-54.344692
3232.421875	-55.373245
3233.398438	-53.882893
3234.375000	-54.217693
3235.351562	-53.582542
3236.328125	-55.691956
3237.304688	-54.451290
3238.281250	-55.645130
3239.257812	-54.731808
3240.234375	-54.471786
3241.210938	-53.581352
3242.187500	-53.137970
3243.164062	-53.392097
3244.140625	-54.143608
3245.117188	-54.881771
3246.093750	-55.153614
3247.070312	-54.649399
3248.046875	-54.227455
3249.023438	-55.050644
3250.000000	-54.721947
3250.976562	-53.211365
3251.953125	-53.929054
3252.929688	-53.380489
3253.906250	-54.071095
3254.882812	-54.547169
3255.859375	-53.941364
3256.835938	-53.870186
3257.812500	-54.249008
3258.789062	-55.727470
3259.765625	-54.209564
3260.742188	-54.413593
3261.718750	-54.441345
3262.695312	-54.368732
3263.671875	-54.718327
3264.648438	-53.216106
3265.625000	-54.796738
3266.601562	-53.688633
3267.578125	-54.907665
3268.554688	-54.458355
3269.531250	-54.848892
3270.507812	-54.755890
3271.484375	-53.714115
3272.460938	-54.241463
3273.437500	-56.230659
3274.414062	-55.840572
3275.390625	-52.703072
3276.367188	-54.188351
3277.343750	-53.732803
3278.320312	-55.448582
3279.296875	-53.614048
3280.273438	-52.732574
3281.250000	-53.058949
3282.226562	-54.497513
3283.203125	-54.577568
3284.179688	-55.035202
3285.156250	-53.850975
3286.132812	-54.204327
3287.109375	-55.455147
3288.085938	-54.310253
3289.062500	-54.163826
3290.039062	-53.859322
3291.015625	-54.210075
3291.992188	-54.320553
3292.968750	-54.075703
3293.945312	-54.710583
3294.921875	-54.048298
3295.898438	-54.259289
3296.875000	-54.565952
3297.851562	-54.324753
3298.828125	-54.163898
3299.804688	-53.667915
3300.781250	-54.201412
3301.757812	-53.360111
3302.734375	-54.115009
3303.710938	-54.415764
3304.687500	-54.201298
3305.664062	-54.719738
3306.640625	-54.885719
3307.617188	-55.119473
3308.593750	-55.481983
3309.570312	-53.276058
3310.546875	-53.257011
3311.523438	-54.325710
3312.500000	-53.080997
3313.476562	-55.862282
3314.453125	-54.379898
3315.429688	-54.960083
3316.406250	-53.766117
3317.382812	-53.698811
3318.359375	-53.164532
3319.335938	-54.381985
3320.312500	-53.303387
3321.289062	-53.636616
3322.265625	-54.070370
3323.242188	-52.828461
3324.218750	-53.159168
3325.195312	-53.867867
3326.171875	-53.488228
3327.148438	-53.682304
3328.125000	-53.041313
3329.101562	-54.490715
3330.078125	-53.978901
3331.054688	-52.135048
3332.031250	-54.021919
3333.007812	-54.467255
3333.984375	-55.018150
3334.960938	-54.225677
3335.937500	-53.215759
3336.914062	-53.048504
3337.890625	-53.277847
3338.867188	-52.601486
3339.843750	-52.016472
3340.820312	-52.660213
3341.796875	-53.178032
3342.773438	-54.120010
3343.750000	-53.104618
3344.726562	-53.468925
3345.703125	-52.923103
3346.679688	-53.658226
3347.656250	-51.739578
3348.632812	-53.571884
3349.609375	-54.161686
3350.585938	-52.807335
3351.562500	-53.318848
3352.539062	-52.534904
3353.515625	-52.133343
3354.492188	-52.588825
3355.468750	-52.372295
3356.445312	-53.557770
3357.421875	-52.089127
3358.398438	-51.788029
3359.375000	-54.288307
3360.351562	-52.806744
3361.328125	-53.197300
3362.304688	-52.683136
3363.281250	-52.882969
3364.257812	-51.388786
3365.234375	-52.100914
3366.210938	-52.700695
3367.187500	-53.167038
3368.164062	-51.628407
3369.140625	-51.490410
3370.117188	-51.868389
3371.093750	-52.374340
3372.070312	-52.220272
3373.046875	-52.489574
3374.023438	-52.230247
3375.000000	-53.038467
3375.976562	-51.761925
3376.953125	-50.893238
3377.929688	-51.232254
3378.906250	-51.918152
3379.882812	-51.953949
3380.859375	-52.323872
3381.835938	-50.872879
3382.812500	-52.442875
3383.789062	-51.114792
3384.765625	-50.904087
3385.742188	-50.220154
3386.718750	-50.818542
3387.695312	-52.941257
3388.671875	-52.107388
3389.648438	-52.250317
3390.625000	-51.936577
3391.601562	-52.882278
3392.578125	-50.665855
3393.554688	-51.972778
3394.531250	-53.293991
3395.507812	-52.850342
3396.484375	-51.436852
3397.460938	-51.493484
3398.437500	-50.760315
3399.414062	-51.013050
3400.390625	-51.210220
3401.367188	-50.631813
3402.343750	-50.826115
3403.320312	-51.348766
3404.296875	-51.369873
3405.273438	-50.746197
3406.250000	-50.666077
3407.226562	-50.174026
3408.203125	-50.855446
3409.179688	-50.108646
3410.156250	-48.695808
3411.132812	-48.624092
3412.109375	-50.757545
3413.085938	-51.355003
3414.062500	-50.450516
3415.039062	-50.023762
3416.015625	-49.525658
3416.992188	-51.130802
3417.968750	-50.359398
3418.945312	-48.699638
3419.921875	-49.272518
3420.898438	-49.811501
3421.875000	-49.305561
3422.851562	-50.198395
3423.828125	-50.446850
3424.804688	-49.400074
3425.781250	-50.022438
3426.757812	-49.227596
3427.734375	-48.590954
3428.710938	-51.034271
3429.687500	-49.767231
3430.664062	-49.169224
3431.640625	-48.489841
3432.617188	-48.554619
3433.593750	-48.619579
3434.570312	-48.917931
3435.546875	-49.125523
3436.523438	-49.151340
3437.500000	-48.114761
3438.476562	-47.686100
3439.453125	-48.746712
3440.429688	-49.208855
3441.406250	-47.014896
3442.382812	-47.261368
3443.359375	-49.410522
3444.335938	-49.389793
3445.312500	-49.239323
3446.289062	-48.748531
3447.265625	-48.474518
3448.242188	-48.093796
3449.218750	-47.653175
3450.195312	-47.671783
3451.171875	-47.310680
3452.148438	-47.576042
3453.125000	-48.274063
3454.101562	-49.279228
3455.078125	-48.973194
3456.054688	-47.333828
3457.031250	-46.789337
3458.007812	-46.838654
3458.984375	-47.294395
3459.960938	-46.868374
3460.937500	-47.186699
3461.914062	-45.913223
3462.890625	-46.779884
3463.867188	-46.240692
3464.843750	-46.463455
3465.820312	-45.956001
3466.796875	-46.907013
3467.773438	-46.077053
3468.750000	-45.957596
3469.726562	-45.246788
3470.703125	-45.312920
3471.679688	-45.816029
3472.656250	-45.925785
3473.632812	-44.904583
3474.609375	-44.636284
3475.585938	-46.974876
3476.562500	-45.917091
3477.539062	-46.378548
3478.515625	-45.468143
3479.492188	-44.050323
3480.468750	-44.253098
3481.445312	-45.260342
3482.421875	-45.361679
3483.398438	-45.188164
3484.375000	-44.178921
3485.351562	-43.549805
3486.328125	-45.576042
3487.304688	-44.650375
3488.281250	-43.782852
3489.257812	-43.059895
3490.234375	-44.949749
3491.210938	-43.010979
3492.187500	-43.444916
3493.164062	-43.720337
3494.140625	-43.105896
3495.117188	-43.263481
3496.093750	-43.444405
3497.070312	-42.563377
3498.046875	-43.395927
3499.023438	-41.919537
3500.000000	-42.140869
3500.976562	-42.855911
3501.953125	-42.056709
3502.929688	-42.115108
3503.906250	-41.395382
3504.882812	-41.054085
3505.859375	-42.945728
3506.835938	-41.945515
3507.812500	-41.589657
3508.789062	-41.719299
3509.765625	-41.159019
3510.742188	-40.743397
3511.718750	-41.515945
3512.695312	-41.749908
3513.671875	-41.348820
3514.648438	-40.364613
3515.625000	-40.148064
3516.601562	-40.641510
3517.578125	-39.321247
3518.554688	-40.269402
3519.531250	-40.642994
3520.507812	-39.793095
3521.484375	-39.798958
3522.460938	-38.720566
3523.437500	-38.359879
3524.414062	-39.106976
3525.390625	-38.805599
3526.367188	-38.907024
3527.343750	-39.011909
3528.320312	-39.589520
3529.296875	-39.196793
3530.273438	-39.561264
3531.250000	-39.312756
3532.226562	-39.313385
3533.203125	-38.142601
3534.179688	-38.421322
3535.156250	-38.234276
3536.132812	-37.541233
3537.109375	-38.083408
3538.085938	-37.721901
3539.062500	-38.747192
3540.039062	-39.959267
3541.015625	-38.929058
3541.992188	-39.050678
3542.968750	-39.100830
3543.945312	-38.917072
3544.921875	-37.684418
3545.898438	-38.892971
3546.875000	-40.197781
3547.851562	-38.950836
3548.828125	-38.991299
3549.804688	-39.623383
3550.781250	-40.005417
3551.757812	-38.889942
3552.734375	-40.299171
3553.710938	-40.428028
3554.687500	-40.322205
3555.664062	-40.408081
3556.640625	-39.755718
3557.617188	-40.520393
3558.593750	-41.437012
3559.570312	-41.170036
3560.546875	-41.321842
3561.523438	-41.830429
3562.500000	-40.535545
3563.476562	-40.039722
3564.453125	-41.699135
3565.429688	-41.803135
3566.406250	-40.569141
3567.382812	-41.102478
3568.359375	-42.829403
3569.335938	-42.450905
3570.312500	-43.265381
3571.289062	-41.477234
3572.265625	-41.712234
3573.242188	-43.019363
3574.218750	-42.302818
3575.195312	-43.547050
3576.171875	-43.572880
3577.148438	-43.509850
3578.125000	-42.641701
3579.101562	-43.971451
3580.078125	-43.662781
3581.054688	-42.965271
3582.031250	-42.723137
3583.007812	-44.399757
3583.984375	-43.989571
3584.960938	-45.357460
3585.937500	-44.991920
3586.914062	-43.779282
3587.890625	-44.470764
3588.867188	-45.505798
3589.843750	-45.345539
3590.820312	-45.068531
3591.796875	-45.260895
3592.773438	-44.504051
3593.750000	-46.361340
3594.726562	-44.698589
3595.703125	-45.129410
3596.679688	-46.566082
3597.656250	-45.864185
3598.632812	-44.926270
3599.609375	-45.762455
3600.585938	-45.363831
3601.562500	-46.779682
3602.539062	-44.672466
3603.515625	-47.081165
3604.492188	-47.155018
3605.468750	-47.987503
3606.445312	-47.354401
3607.421875	-45.938347
3608.398438	-45.422398
3609.375000	-46.746250
3610.351562	-45.917416
3611.328125	-46.717258
3612.304688	-46.399380
3613.281250	-47.990776
3614.257812	-48.948551
3615.234375	-47.153332
3616.210938	-48.289165
3617.187500	-48.094223
3618.164062	-48.249531
3619.140625	-49.614349
3620.117188	-47.029259
3621.093750	-47.119705
3622.070312	-47.847282
3623.046875	-48.775867
3624.023438	-48.188992
3625.000000	-47.146927
3625.976562	-48.393154
3626.953125	-47.866817
3627.929688	-49.000282
3628.906250	-49.018421
3629.882812	-49.272995
3630.859375	-48.834949
3631.835938	-50.349979
3632.812500	-50.449745
3633.789062	-48.876511
3634.765625	-47.860489
3635.742188	-50.568333
3636.718750	-49.734070
3637.695312	-49.732471
3638.671875	-48.800491
3639.648438	-49.561886
3640.625000	-49.226086
3641.601562	-49.024643
3642.578125	-49.931095
3643.554688	-49.540524
3644.531250	-49.174500
3645.507812	-49.899269
3646.484375	-50.617546
3647.460938	-50.336205
3648.437500	-50.986717
3649.414062	-51.143314
3650.390625	-51.058777
3651.367188	-50.222569
3652.343750	-50.795128
3653.320312	-50.224857
3654.296875	-50.150570
3655.273438	-50.701721
3656.250000	-50.751030
3657.226562	-50.482380
3658.203125	-51.600990
3659.179688	-52.414448
3660.156250	-51.591839
3661.132812	-51.026913
3662.109375	-51.123222
3663.085938	-52.054756
3664.062500	-51.234798
3665.039062	-51.055473
3666.015625	-50.753628
3666.992188	-50.516041
3667.968750	-53.074066
3668.945312	-52.061996
3669.921875	-52.029625
3670.898438	-51.448582
3671.875000	-51.355083
3672.851562	-52.141296
3673.828125	-52.127010
3674.804688	-52.742123
3675.781250	-52.245171
3676.757812	-51.758560
3677.734375	-51.758656
3678.710938	-52.335705
3679.687500	-52.121098
3680.664062	-52.408924
3681.640625	-52.641628
3682.617188	-52.752468
3683.593750	-52.466343
3684.570312	-52.873787
3685.546875	-52.562164
3686.523438	-53.196312
3687.500000	-52.346760
3688.476562	-51.601738
3689.453125	-52.102352
3690.429688	-51.992241
3691.406250	-52.205219
3692.382812	-52.178871
3693.359375	-51.534225
3694.335938	-53.141998
3695.312500	-53.059750
3696.289062	-53.029976
3697.265625	-52.817207
3698.242188	-52.551773
3699.218750	-52.347996
3700.195312	-52.729824
3701.171875	-52.369370
3702.148438	-53.277187
3703.125000	-52.165726
3704.101562	-51.840622
3705.078125	-52.661507
3706.054688	-52.454407
3707.031250	-53.880821
3708.007812	-54.188732
3708.984375	-55.275314
3709.960938	-52.984058
3710.937500	-53.505272
3711.914062	-52.898483
3712.890625	-54.830357
3713.867188	-54.780270
3714.843750	-53.937054
3715.820312	-54.789742
3716.796875	-53.830139
3717.773438	-54.070766
3718.750000	-54.025356
3719.726562	-54.602139
3720.703125	-53.146458
3721.679688	-53.432163
3722.656250	-53.057034
3723.632812	-54.614685
3724.609375	-53.421261
3725.585938	-52.609333
3726.562500	-53.798733
3727.539062	-54.217651
3728.515625	-54.389526
3729.492188	-53.988098
3730.468750	-53.681976
3731.445312	-54.426346
3732.421875	-53.360729
3733.398438	-54.689316
3734.375000	-54.453377
3735.351562	-54.576744
3736.328125	-53.944851
3737.304688	-54.444843
3738.281250	-54.640827
3739.257812	-53.860218
3740.234375	-55.464462
3741.210938	-55.891838
3742.187500	-55.295658
3743.164062	-54.753490
3744.140625	-55.092995
3745.117188	-54.940704
3746.093750	-53.866982
3747.070312	-53.945072
3748.046875	-55.075829
3749.023438	-54.577690
3750.000000	-55.007500
3750.976562	-56.489956
3751.953125	-54.858204
3752.929688	-53.924946
3753.906250	-54.444534
3754.882812	-54.853401
3755.859375	-54.996609
3756.835938	-55.380138
3757.812500	-55.639904
3758.789062	-55.672684
3759.765625	-54.180317
3760.742188	-55.094292
3761.718750	-55.233055
3762.695312	-55.383732
3763.671875	-54.386898
3764.648438	-54.931538
3765.625000	-55.826321
3766.601562	-55.371132
3767.578125	-55.583126
3768.554688	-55.198517
3769.531250	-55.996292
3770.507812	-55.514038
3771.484375	-54.861103
3772.460938	-53.668636
3773.437500	-54.571514
3774.414062	-56.050022
3775.390625	-56.434696
3776.367188	-55.874111
3777.343750	-55.052994
3778.320312	-54.672192
3779.296875	-53.711601
3780.273438	-56.073860
3781.250000	-55.042301
3782.226562	-55.623402
3783.203125	-54.713131
3784.179688	-54.827187
3785.156250	-54.744022
3786.132812	-53.751663
3787.109375	-55.358494
3788.085938	-56.495571
3789.062500	-56.833565
3790.039062	-55.388000
3791.015625	-54.942688
3791.992188	-55.042725
3792.968750	-55.075073
3793.945312	-55.912807
3794.921875	-55.640060
3795.898438	-55.965061
3796.875000	-55.265408
3797.851562	-55.249168
3798.828125	-54.531799
3799.804688	-56.052666
3800.781250	-56.297905
3801.757812	-54.961166
3802.734375	-54.724258
3803.710938	-54.748001
3804.687500	-56.033657
3805.664062	-55.921886
3806.640625	-54.118938
3807.617188	-56.490559
3808.593750	-55.949677
3809.570312	-55.572643
3810.546875	-56.161877
3811.523438	-55.947308
3812.500000	-56.190197
3813.476562	-54.869797
3814.453125	-54.427479
3815.429688	-54.979843
3816.406250	-54.949257
3817.382812	-55.582935
3818.359375	-55.954861
3819.335938	-55.354664
3820.312500	-55.057037
3821.289062	-56.778446
3822.265625	-56.868832
3823.242188	-55.395401
3824.218750	-55.198124
3825.195312	-55.485638
3826.171875	-54.966923
3827.148438	-55.495991
3828.125000	-55.888790
3829.101562	-55.008633
3830.078125	-55.690388
3831.054688	-54.570019
3832.031250	-55.628506
3833.007812	-56.447220
3833.984375	-55.577099
3834.960938	-54.946041
3835.937500	-54.820637
3836.914062	-55.183369
3837.890625	-56.671158
3838.867188	-55.697025
3839.843750	-54.321846
3840.820312	-56.247864
3841.796875	-55.881203
3842.773438	-56.533924
3843.750000	-56.606636
3844.726562	-55.858181
3845.703125	-53.806484
3846.679688	-56.569172
3847.656250	-54.866020
3848.632812	-54.485043
3849.609375	-55.553486
3850.585938	-55.813068
3851.562500	-55.584137
3852.539062	-55.285206
3853.515625	-54.712406
3854.492188	-54.736187
3855.468750	-55.462776
3856.445312	-55.281445
3857.421875	-55.113468
3858.398438	-57.067513
3859.375000	-56.649502
3860.351562	-55.927647
3861.328125	-56.530262
3862.304688	-54.943104
3863.281250	-55.206833
3864.257812	-55.953083
3865.234375	-55.943779
3866.210938	-56.412083
3867.187500	-54.824604
3868.164062	-55.601105
3869.140625	-57.175037
3870.117188	-56.761570
3871.093750	-55.759396
3872.070312	-55.478573
3873.046875	-54.539104
3874.023438	-54.967758
3875.000000	-55.766247
3875.976562	-55.637001
3876.953125	-56.417389
3877.929688	-55.312878
3878.906250	-54.999859
3879.882812	-56.662910
3880.859375	-56.117863
3881.835938	-55.610889
3882.812500	-55.350452
3883.789062	-54.895821
3884.765625	-55.138149
3885.742188	-55.719582
3886.718750	-55.478481
3887.695312	-55.549240
3888.671875	-55.220249
3889.648438	-55.737152
3890.625000	-54.342339
3891.601562	-54.380768
3892.578125	-54.168694
3893.554688	-54.854885
3894.531250	-54.791042
3895.507812	-55.046295
3896.484375	-54.580311
3897.460938	-55.898819
3898.437500	-55.913605
3899.414062	-56.274780
3900.390625	-55.673897
3901.367188	-54.480412
3902.343750	-55.219044
3903.320312	-55.444225
3904.296875	-55.492249
3905.273438	-56.361080
3906.250000	-57.070187
3907.226562	-55.397934
3908.203125	-55.343410
3909.179688	-54.225296
3910.156250	-55.786777
3911.132812	-53.255741
3912.109375	-54.270195
3913.085938	-54.898739
3914.062500	-54.757416
3915.039062	-54.214901
3916.015625	-54.146000
3916.992188	-55.334499
3917.968750	-54.256809
3918.945312	-53.918327
3919.921875	-55.441616
3920.898438	-55.645470
3921.875000	-54.397087
3922.851562	-55.097942
3923.828125	-54.881088
3924.804688	-54.614830
3925.781250	-53.966965
3926.757812	-55.154396
3927.734375	-54.036381
3928.710938	-54.744492
3929.687500	-54.370174
3930.664062	-55.014847
3931.640625	-52.685421
3932.617188	-54.066936
3933.593750	-53.555470
3934.570312	-54.702328
3935.546875	-54.752811
3936.523438	-53.359623
3937.500000	-52.678780
3938.476562	-53.205200
3939.453125	-54.253796
3940.429688	-54.652264
3941.406250	-54.295242
3942.382812	-53.922573
3943.359375	-54.267513
3944.335938	-52.790447
3945.312500	-53.619328
3946.289062	-55.706360
3947.265625	-55.106270
3948.242188	-54.557373
3949.218750	-53.115475
3950.195312	-53.845268
3951.171875	-52.541836
3952.148438	-54.100761
3953.125000	-53.593761
3954.101562	-53.496681
3955.078125	-54.362370
3956.054688	-53.034565
3957.031250	-54.475224
3958.007812	-52.745907
3958.984375	-54.040680
3959.960938	-53.316933
3960.937500	-55.015263
3961.914062	-53.383190
3962.890625	-53.226246
3963.867188	-54.875828
3964.843750	-55.163757
3965.820312	-53.067719
3966.796875	-53.650791
3967.773438	-53.850399
3968.750000	-53.522999
3969.726562	-53.631817
3970.703125	-53.034298
3971.679688	-53.446659
3972.656250	-53.667419
3973.632812	-52.084190
3974.609375	-52.922089
3975.585938	-53.265099
3976.562500	-52.760384
3977.539062	-53.202003
3978.515625	-53.099060
3979.492188	-52.879238
3980.468750	-52.606339
3981.445312	-51.519093
3982.421875	-51.971359
3983.398438	-52.658871
3984.375000	-53.496620
3985.351562	-53.587566
3986.328125	-52.085720
3987.304688	-52.421227
3988.281250	-51.966946
3989.257812	-51.804848
3990.234375	-52.125771
3991.210938	-52.035049
3992.187500	-53.087566
3993.164062	-52.341484
3994.140625	-51.609859
3995.117188	-52.130867
3996.093750	-52.271168
3997.070312	-52.213860
3998.046875	-50.880367
3999.023438	-51.878666
4000.000000	-52.763069
4000.976562	-51.729198
4001.953125	-51.783646
4002.929688	-50.956833
4003.906250	-51.589527
4004.882812	-51.521427
4005.859375	-50.696640
4006.835938	-50.769718
4007.812500	-50.335373
4008.789062	-51.626690
4009.765625	-50.965626
4010.742188	-51.091774
4011.718750	-52.343868
4012.695312	-51.621689
4013.671875	-50.624737
4014.648438	-50.514137
4015.625000	-50.644859
4016.601562	-49.972267
4017.578125	-50.599426
4018.554688	-51.644814
4019.531250	-50.395454
4020.507812	-50.206654
4021.484375	-50.284985
4022.460938	-50.495544
4023.437500	-49.767311
4024.414062	-49.753414
4025.390625	-50.019764
4026.367188	-50.659382
4027.343750	-49.768398
4028.320312	-50.233814
4029.296875	-50.231258
4030.273438	-49.039532
4031.250000	-47.920639
4032.226562	-49.779537
4033.203125	-49.613270
4034.179688	-50.142395
4035.156250	-49.283981
4036.132812	-48.753136
4037.109375	-49.585926
4038.085938	-49.441284
4039.062500	-48.053238
4040.039062	-48.478535
4041.015625	-49.344894
4041.992188	-49.118820
4042.968750	-48.930546
4043.945312	-48.270214
4044.921875	-48.394268
4045.898438	-47.870449
4046.875000	-47.887913
4047.851562	-49.066151
4048.828125	-47.162430
4049.804688	-48.330311
4050.781250	-48.642200
4051.757812	-48.290760
4052.734375	-47.750675
4053.710938	-47.085979
4054.687500	-48.025402
4055.664062	-47.590874
4056.640625	-47.753994
4057.617188	-47.268509
4058.593750	-47.248962
4059.570312	-46.409714
4060.546875	-46.764397
4061.523438	-47.509914
4062.500000	-46.922668
4063.476562	-46.985008
4064.453125	-46.229519
4065.429688	-46.661999
4066.406250	-45.188477
4067.382812	-45.814365
4068.359375	-45.482441
4069.335938	-44.788662
4070.312500	-45.308422
4071.289062	-45.450172
4072.265625	-44.083843
4073.242188	-44.983170
4074.218750	-45.662868
4075.195312	-45.694031
4076.171875	-44.794987
4077.148438	-44.382717
4078.125000	-46.246479
4079.101562	-43.311569
4080.078125	-44.633419
4081.054688	-44.145393
4082.031250	-44.663513
4083.007812	-44.045734
4083.984375	-42.838531
4084.960938	-44.153446
4085.937500	-43.896454
4086.914062	-43.687927
4087.890625	-44.969078
4088.867188	-42.824329
4089.843750	-42.472336
4090.820312	-43.733803
4091.796875	-43.118481
4092.773438	-43.736233
4093.750000	-41.943733
4094.726562	-42.368389
4095.703125	-42.460476
4096.679688	-42.949196
4097.656250	-42.326477
4098.632812	-41.348713
4099.609375	-41.284481
4100.585938	-42.943237
4101.562500	-42.822769
4102.539062	-41.754341
4103.515625	-40.761730
4104.492188	-42.169128
4105.468750	-40.041557
4106.445312	-40.569534
4107.421875	-39.679813
4108.398438	-40.089764
4109.375000	-40.451572
4110.351562	-40.599983
4111.328125	-40.645832
4112.304688	-40.252865
4113.281250	-41.329475
4114.257812	-39.457821
4115.234375	-40.740654
4116.210938	-40.447968
4117.187500	-41.024704
4118.164062	-38.760712
4119.140625	-40.551918
4120.117188	-39.655071
4121.093750	-40.792046
4122.070312	-39.786903
4123.046875	-39.957447
4124.023438	-40.930237
4125.000000	-40.377453
4125.976562	-40.916714
4126.953125	-41.182667
4127.929688	-41.488522
4128.906250	-40.925564
4129.882812	-40.822605
4130.859375	-41.995129
4131.835938	-40.779621
4132.812500	-40.630787
4133.789062	-40.922855
4134.765625	-41.943497
4135.742188	-41.556316
4136.718750	-41.263538
4137.695312	-41.299824
4138.671875	-43.027309
4139.648438	-42.343620
4140.625000	-41.955170
4141.601562	-41.864666
4142.578125	-42.375999
4143.554688	-43.289639
4144.531250	-42.844830
4145.507812	-41.720539
4146.484375	-42.076916
4147.460938	-43.035847
4148.437500	-45.003849
4149.414062	-44.243786
4150.390625	-43.116299
4151.367188	-43.170856
4152.343750	-44.239601
4153.320312	-44.601696
4154.296875	-43.414520
4155.273438	-43.490505
4156.250000	-43.868786
4157.226562	-44.148010
4158.203125	-45.579472
4159.179688	-44.932800
4160.156250	-44.271870
4161.132812	-45.330109
4162.109375	-45.991314
4163.085938	-45.494808
4164.062500	-45.973747
4165.039062	-45.411045
4166.015625	-45.106533
4166.992188	-44.899792
4167.968750	-45.879520
4168.945312	-46.382603
4169.921875	-47.172855
4170.898438	-47.219456
4171.875000	-47.751179
4172.851562	-46.132469
4173.828125	-47.778023
4174.804688	-47.592911
4175.781250	-45.808521
4176.757812	-46.279667
4177.734375	-47.339970
4178.710938	-48.098354
4179.687500	-47.905857
4180.664062	-48.308487
4181.640625	-47.773365
4182.617188	-48.143768
4183.593750	-47.470058
4184.570312	-47.635872
4185.546875	-48.868610
4186.523438	-49.830521
4187.500000	-48.575039
4188.476562	-48.019966
4189.453125	-50.305618
4190.429688	-50.519302
4191.406250	-47.866982
4192.382812	-47.180817
4193.359375	-48.330700
4194.335938	-49.109913
4195.312500	-48.818783
4196.289062	-50.180073
4197.265625	-48.956268
4198.242188	-49.712917
4199.218750	-49.030277
4200.195312	-49.263187
4201.171875	-50.819172
4202.148438	-49.276031
4203.125000	-49.195972
4204.101562	-49.927864
4205.078125	-49.087360
4206.054688	-50.073997
4207.031250	-50.358662
4208.007812	-49.534069
4208.984375	-50.849903
4209.960938	-49.734367
4210.937500	-51.535351
4211.914062	-51.732800
4212.890625	-50.395466
4213.867188	-51.352985
4214.843750	-52.354122
4215.820312	-50.474232
4216.796875	-50.607239
4217.773438	-50.971775
4218.750000	-50.599941
4219.726562	-51.261269
4220.703125	-52.637970
4221.679688	-50.001083
4222.656250	-51.262527
4223.632812	-51.036873
4224.609375	-51.341496
4225.585938	-52.392105
4226.562500	-51.027985
4227.539062	-51.405930
4228.515625	-50.862656
4229.492188	-51.805271
4230.468750	-52.547054
4231.445312	-52.624805
4232.421875	-52.635868
4233.398438	-51.372654
4234.375000	-51.024834
4235.351562	-51.860664
4236.328125	-52.216621
4237.304688	-52.457512
4238.281250	-52.697014
4239.257812	-53.037495
4240.234375	-51.957527
4241.210938	-52.612183
4242.187500	-51.861721
4243.164062	-52.186356
4244.140625	-52.124920
4245.117188	-51.648785
4246.093750	-52.654537
4247.070312	-53.721935
4248.046875	-54.218712
4249.023438	-53.168545
4250.000000	-53.233047
4250.976562	-51.961346
4251.953125	-52.924603
4252.929688	-52.719715
4253.906250	-52.804878
4254.882812	-53.082966
4255.859375	-53.325985
4256.835938	-53.642155
4257.812500	-53.743771
4258.789062	-52.328300
4259.765625	-52.329967
4260.742188	-53.404022
4261.718750	-53.042683
4262.695312	-52.702999
4263.671875	-54.001587
4264.648438	-53.539425
4265.625000	-53.882572
4266.601562	-53.702972
4267.578125	-54.695202
4268.554688	-55.468426
4269.531250	-53.291794
4270.507812	-54.183308
4271.484375	-54.120686
4272.460938	-53.206650
4273.437500	-54.636417
4274.414062	-54.406864
4275.390625	-54.504791
4276.367188	-53.848362
4277.343750	-53.777580
4278.320312	-54.706188
4279.296875	-55.101871
4280.273438	-54.661247
4281.250000	-54.013298
4282.226562	-55.410011
4283.203125	-55.290508
4284.179688	-54.524780
4285.156250	-55.085159
4286.132812	-55.448631
4287.109375	-54.436115
4288.085938	-54.571617
4289.062500	-54.316425
4290.039062	-54.021187
4291.015625	-55.519981
4291.992188	-55.127735
4292.968750	-55.178852
4293.945312	-54.430500
4294.921875	-53.711433
4295.898438	-55.024227
4296.875000	-54.881420
4297.851562	-54.100731
4298.828125	-56.037613
4299.804688	-55.436230
4300.781250	-54.815353
4301.757812	-52.623344
4302.734375	-53.809608
4303.710938	-55.817123
4304.687500	-54.933384
4305.664062	-55.889111
4306.640625	-55.469856
4307.617188	-55.855076
4308.593750	-56.151299
4309.570312	-55.274288
4310.546875	-56.268276
4311.523438	-55.326050
4312.500000	-56.299454
4313.476562	-56.082005
4314.453125	-55.978901
4315.429688	-55.249084
4316.406250	-55.038586
4317.382812	-54.582191
4318.359375	-55.257378
4319.335938	-55.250820
4320.312500	-55.349293
4321.289062	-55.386967
4322.265625	-56.575645
4323.242188	-56.010899
4324.218750	-57.105145
4325.195312	-55.665699
4326.171875	-55.419178
4327.148438	-54.716976
4328.125000	-55.840309
4329.101562	-55.127178
4330.078125	-55.227570
4331.054688	-56.609745
4332.031250	-55.176605
4333.007812	-55.663845
4333.984375	-55.464279
4334.960938	-57.198025
4335.937500	-55.157486
4336.914062	-54.944798
4337.890625	-55.413727
4338.867188	-56.525261
4339.843750	-56.215317
4340.820312	-56.978619
4341.796875	-56.379410
4342.773438	-56.466896
4343.750000	-56.815201
4344.726562	-55.912796
4345.703125	-57.947483
4346.679688	-57.961155
4347.656250	-56.716393
4348.632812	-54.996700
4349.609375	-55.302574
4350.585938	-55.786873
4351.562500	-56.144611
4352.539062	-56.913544
4353.515625	-56.590126
4354.492188	-55.919495
4355.468750	-56.181049
4356.445312	-57.102470
4357.421875	-57.941017
4358.398438	-56.879894
4359.375000	-56.736904
4360.351562	-55.624004
4361.328125	-56.640839
4362.304688	-56.707733
4363.281250	-55.725716
4364.257812	-55.817455
4365.234375	-55.902489
4366.210938	-56.210777
4367.187500	-56.525475
4368.164062	-56.879913
4369.140625	-56.360687
4370.117188	-56.163334
4371.093750	-56.096146
4372.070312	-56.872349
4373.046875	-56.937542
4374.023438	-56.785156
4375.000000	-55.812340
4375.976562	-55.422421
4376.953125	-56.152748
4377.929688	-56.683895
4378.906250	-57.068550
4379.882812	-56.770454
4380.859375	-56.462784
4381.835938	-56.633789
4382.812500	-56.780750
4383.789062	-56.535400
4384.765625	-57.013336
4385.742188	-58.107090
4386.718750	-57.070545
4387.695312	-55.263523
4388.671875	-56.841438
4389.648438	-56.391495
4390.625000	-56.590153
4391.601562	-56.341721
4392.578125	-56.946674
4393.554688	-56.324539
4394.531250	-56.212509
4395.507812	-55.766808
4396.484375	-57.646912
4397.460938	-56.071274
4398.437500	-56.708294
4399.414062	-56.253658
4400.390625	-56.608837
4401.367188	-57.556187
4402.343750	-57.342922
4403.320312	-56.928757
4404.296875	-57.730644
4405.273438	-57.863342
4406.250000	-54.954529
4407.226562	-57.176670
4408.203125	-56.470787
4409.179688	-55.309338
4410.156250	-56.207977
4411.132812	-56.631145
4412.109375	-58.352032
4413.085938	-57.215569
4414.062500	-57.905830
4415.039062	-57.445892
4416.015625	-56.036228
4416.992188	-57.011055
4417.968750	-56.074356
4418.945312	-55.520790
4419.921875	-55.877518
4420.898438	-56.342815
4421.875000	-55.878895
4422.851562	-57.358490
4423.828125	-56.324768
4424.804688	-55.798111
4425.781250	-57.256458
4426.757812	-57.754417
4427.734375	-55.370235
4428.710938	-57.022766
4429.687500	-55.897408
4430.664062	-56.623661
4431.640625	-57.754562
4432.617188	-57.148628
4433.593750	-57.178570
4434.570312	-55.469864
4435.546875	-55.843822
4436.523438	-56.253242
4437.500000	-56.283508
4438.476562	-56.382210
4439.453125	-57.847980
4440.429688	-57.327675
4441.406250	-56.581215
4442.382812	-56.349834
4443.359375	-58.329536
4444.335938	-56.789280
4445.312500	-55.483238
4446.289062	-55.535843
4447.265625	-55.939751
4448.242188	-57.762474
4449.218750	-56.637806
4450.195312	-56.694340
4451.171875	-56.482834
4452.148438	-56.906605
4453.125000	-55.327850
4454.101562	-57.449448
4455.078125	-56.619194
4456.054688	-57.037216
4457.031250	-56.664330
4458.007812	-57.850891
4458.984375	-55.622547
4459.960938	-56.374763
4460.937500	-57.327900
4461.914062	-56.528889
4462.890625	-56.822411
4463.867188	-56.778545
4464.843750	-56.268742
4465.820312	-55.693947
4466.796875	-55.262104
4467.773438	-57.037521
4468.750000	-55.802769
4469.726562	-55.359337
4470.703125	-57.055767
4471.679688	-56.611008
4472.656250	-56.538116
4473.632812	-56.060837
4474.609375	-57.343975
4475.585938	-57.048683
4476.562500	-56.490135
4477.539062	-56.788795
4478.515625	-55.686138
4479.492188	-56.953487
4480.468750	-56.601742
4481.445312	-58.044216
4482.421875	-55.685165
4483.398438	-57.033222
4484.375000	-56.543186
4485.351562	-55.780056
4486.328125	-55.489937
4487.304688	-57.127052
4488.281250	-55.703243
4489.257812	-54.765343
4490.234375	-56.520454
4491.210938	-54.853909
4492.187500	-56.597347
4493.164062	-55.321823
4494.140625	-57.346973
4495.117188	-55.141514
4496.093750	-56.933002
4497.070312	-54.424980
4498.046875	-55.306236
4499.023438	-55.574741
4500.000000	-56.293083
4500.976562	-56.374554
4501.953125	-56.874897
4502.929688	-55.255405
4503.906250	-55.264332
4504.882812	-55.030491
4505.859375	-56.210323
4506.835938	-55.576653
4507.812500	-55.577316
4508.789062	-55.834774
4509.765625	-54.620949
4510.742188	-53.479218
4511.718750	-55.266109
4512.695312	-55.561287
4513.671875	-54.925503
4514.648438	-55.831085
4515.625000	-55.481865
4516.601562	-56.815075
4517.578125	-56.024445
4518.554688	-55.726540
4519.531250	-55.291821
4520.507812	-56.017540
4521.484375	-56.273758
4522.460938	-55.283890
4523.437500	-54.742168
4524.414062	-55.636517
4525.390625	-55.485668
4526.367188	-55.012875
4527.343750	-55.706886
4528.320312	-55.325966
4529.296875	-54.275150
4530.273438	-55.291763
4531.250000	-54.210133
4532.226562	-54.797916
4533.203125	-54.537365
4534.179688	-54.275375
4535.156250	-54.300930
4536.132812	-54.060658
4537.109375	-55.236729
4538.085938	-54.535393
4539.062500	-53.808403
4540.039062	-53.189911
4541.015625	-54.365993
4541.992188	-54.028725
4542.968750	-53.489243
4543.945312	-53.701015
4544.921875	-55.379921
4545.898438	-53.742531
4546.875000	-54.177120
4547.851562	-54.204464
4548.828125	-54.222427
4549.804688	-54.539623
4550.781250	-53.240364
4551.757812	-55.259216
4552.734375	-53.841064
4553.710938	-53.559486
4554.687500	-53.670029
4555.664062	-52.720917
4556.640625	-52.879906
4557.617188	-54.095413
4558.593750	-53.046646
4559.570312	-54.076595
4560.546875	-53.040298
4561.523438	-53.308273
4562.500000	-53.375061
4563.476562	-53.507980
4564.453125	-53.404465
4565.429688	-53.981022
4566.406250	-53.734554
4567.382812	-52.214455
4568.359375	-53.832687
4569.335938	-52.865322
4570.312500	-51.373989
4571.289062	-52.752647
4572.265625	-52.644257
4573.242188	-53.007870
4574.218750	-52.845520
4575.195312	-52.729126
4576.171875	-52.302422
4577.148438	-53.533817
4578.125000	-54.092255
4579.101562	-53.094898
4580.078125	-52.162449
4581.054688	-51.998993
4582.031250	-53.346603
4583.007812	-52.999004
4583.984375	-51.986183
4584.960938	-52.432320
4585.937500	-51.325069
4586.914062	-52.872982
4587.890625	-51.842686
4588.867188	-52.489357
4589.843750	-52.014069
4590.820312	-53.303600
4591.796875	-50.139637
4592.773438	-51.004707
4593.750000	-52.438118
4594.726562	-50.699196
4595.703125	-50.638134
4596.679688	-51.145893
4597.656250	-51.050541
4598.632812	-50.712345
4599.609375	-51.335560
4600.585938	-51.260033
4601.562500	-50.410332
4602.539062	-52.002468
4603.515625	-51.178322
4604.492188	-51.339348
4605.468750	-50.874443
4606.445312	-50.538822
4607.421875	-51.497780
4608.398438	-50.425690
4609.375000	-49.789482
4610.351562	-49.814690
4611.328125	-51.397518
4612.304688	-50.612041
4613.281250	-49.642929
4614.257812	-49.229679
4615.234375	-49.527042
4616.210938	-50.215263
4617.187500	-50.724426
4618.164062	-49.554558
4619.140625	-49.242180
4620.117188	-48.634670
4621.093750	-48.854530
4622.070312	-49.338928
4623.046875	-48.280769
4624.023438	-48.845390
4625.000000	-49.261932
4625.976562	-49.645901
4626.953125	-48.892700
4627.929688	-48.419838
4628.906250	-47.203789
4629.882812	-48.369690
4630.859375	-48.902283
4631.835938	-48.776680
4632.812500	-48.701920
4633.789062	-48.748749
4634.765625	-47.760544
4635.742188	-48.131443
4636.718750	-48.260063
4637.695312	-47.720379
4638.671875	-47.425953
4639.648438	-47.161911
4640.625000	-47.241310
4641.601562	-48.529514
4642.578125	-46.535934
4643.554688	-45.902946
4644.531250	-46.886917
4645.507812	-46.162800
4646.484375	-46.644028
4647.460938	-46.791649
4648.437500	-46.432838
4649.414062	-45.546200
4650.390625	-45.026207
4651.367188	-45.517517
4652.343750	-45.969116
4653.320312	-44.723335
4654.296875	-44.331955
4655.273438	-46.750481
4656.250000	-45.651337
4657.226562	-45.004177
4658.203125	-45.730251
4659.179688	-44.703773
4660.156250	-45.588299
4661.132812	-44.747528
4662.109375	-45.081749
4663.085938	-45.450451
4664.062500	-44.865208
4665.039062	-44.148689
4666.015625	-43.737766
4666.992188	-43.412720
4667.968750	-43.661934
4668.945312	-44.877880
4669.921875	-44.521458
4670.898438	-44.021751
4671.875000	-43.734375
4672.851562	-44.443668
4673.828125	-42.083504
4674.804688	-43.600384
4675.781250	-42.656452
4676.757812	-42.487404
4677.734375	-42.319088
4678.710938	-42.198544
4679.687500	-42.020401
4680.664062	-42.594475
4681.640625	-42.481606
4682.617188	-42.152306
4683.593750	-43.311314
4684.570312	-41.699299
4685.546875	-41.050442
4686.523438	-41.249073
4687.500000	-42.073303
4688.476562	-40.553139
4689.453125	-41.598026
4690.429688	-42.550426
4691.406250	-40.712822
4692.382812	-41.195072
4693.359375	-41.087250
4694.335938	-42.210522
4695.312500	-41.542458
4696.289062	-42.745564
4697.265625	-41.783516
4698.242188	-40.878189
4699.218750	-40.715446
4700.195312	-41.697205
4701.171875	-41.688240
4702.148438	-41.861885
4703.125000	-42.736176
4704.101562	-40.611031
4705.078125	-41.793537
4706.054688	-41.274113
4707.031250	-40.491879
4708.007812	-42.554607
4708.984375	-42.281437
4709.960938	-41.151371
4710.937500	-42.772301
4711.914062	-42.740948
4712.890625	-42.925045
4713.867188	-42.890434
4714.843750	-41.842999
4715.820312	-42.099915
4716.796875	-41.697422
4717.773438	-42.074493
4718.750000	-43.926632
4719.726562	-45.321220
4720.703125	-44.892372
4721.679688	-43.495594
4722.656250	-45.295990
4723.632812	-44.224571
4724.609375	-44.174950
4725.585938	-43.875031
4726.562500	-44.560921
4727.539062	-44.415623
4728.515625	-44.378510
4729.492188	-45.466133
4730.468750	-46.470840
4731.445312	-44.563953
4732.421875	-44.829647
4733.398438	-44.361385
4734.375000	-44.698303
4735.351562	-46.008698
4736.328125	-44.814640
4737.304688	-45.327633
4738.281250	-44.881752
4739.257812	-45.693951
4740.234375	-46.112507
4741.210938	-45.930267
4742.187500	-46.031258
4743.164062	-46.576424
4744.140625	-47.123497
4745.117188	-47.585472
4746.093750	-46.113266
4747.070312	-46.937630
4748.046875	-45.744873
4749.023438	-45.721939
4750.000000	-46.365086
4750.976562	-47.885128
4751.953125	-46.572914
4752.929688	-47.144268
4753.906250	-47.782139
4754.882812	-47.984352
4755.859375	-49.531769
4756.835938	-47.786079
4757.812500	-48.527046
4758.789062	-48.391125
4759.765625	-48.960796
4760.742188	-49.108715
4761.718750	-49.397678
4762.695312	-48.470921
4763.671875	-49.620789
4764.648438	-49.481796
4765.625000	-48.557957
4766.601562	-48.123032
4767.578125	-48.337410
4768.554688	-48.821945
4769.531250	-48.412827
4770.507812	-49.830135
4771.484375	-49.761837
4772.460938	-49.172195
4773.437500	-50.030956
4774.414062	-49.938416
4775.390625	-50.244762
4776.367188	-49.619495
4777.343750	-48.854595
4778.320312	-49.243019
4779.296875	-47.748886
4780.273438	-49.081657
4781.250000	-51.279613
4782.226562	-50.657436
4783.203125	-50.936317
4784.179688	-51.724876
4785.156250	-50.788536
4786.132812	-51.078598
4787.109375	-50.294075
4788.085938	-51.426617
4789.062500	-50.642506
4790.039062	-51.817535
4791.015625	-51.437847
4791.992188	-51.706562
4792.968750	-51.713673
4793.945312	-50.037342
4794.921875	-50.227791
4795.898438	-50.619717
4796.875000	-50.758026
4797.851562	-51.306049
4798.828125	-50.378036
4799.804688	-51.825691
4800.781250	-50.709328
4801.757812	-51.454113
4802.734375	-51.977398
4803.710938	-52.018368
4804.687500	-51.634556
4805.664062	-52.121498
4806.640625	-51.319725
4807.617188	-50.266670
4808.593750	-51.732574
4809.570312	-51.971844
4810.546875	-52.279728
4811.523438	-51.976822
4812.500000	-52.269272
4813.476562	-51.133350
4814.453125	-52.547176
4815.429688	-52.643169
4816.406250	-53.700588
4817.382812	-52.422333
4818.359375	-53.435905
4819.335938	-52.205044
4820.312500	-52.278267
4821.289062	-52.783337
4822.265625	-52.151688
4823.242188	-53.478695
4824.218750	-52.838448
4825.195312	-52.796917
4826.171875	-52.318504
4827.148438	-53.297878
4828.125000	-53.942421
4829.101562	-52.439556
4830.078125	-53.102058
4831.054688	-53.364674
4832.031250	-53.131157
4833.007812	-53.219524
4833.984375	-53.047314
4834.960938	-53.448883
4835.937500	-52.547714
4836.914062	-52.642136
4837.890625	-53.484039
4838.867188	-53.168404
4839.843750	-53.492336
4840.820312	-53.936543
4841.796875	-52.601406
4842.773438	-54.152584
4843.750000	-54.463123
4844.726562	-54.507172
4845.703125	-54.513607
4846.679688	-55.278076
4847.656250	-52.697144
4848.632812	-52.754204
4849.609375	-53.412258
4850.585938	-53.387985
4851.562500	-53.768745
4852.539062	-53.699215
4853.515625	-54.234814
4854.492188	-53.572670
4855.468750	-53.728218
4856.445312	-52.709732
4857.421875	-54.016125
4858.398438	-53.996750
4859.375000	-52.185223
4860.351562	-54.416851
4861.328125	-53.353565
4862.304688	-54.899586
4863.281250	-55.279984
4864.257812	-54.558609
4865.234375	-54.093010
4866.210938	-55.497116
4867.187500	-55.419411
4868.164062	-54.770638
4869.140625	-53.664959
4870.117188	-55.102211
4871.093750	-53.916004
4872.070312	-54.533894
4873.046875	-54.751568
4874.023438	-54.683044
4875.000000	-55.292213
4875.976562	-55.466164
4876.953125	-54.701241
4877.929688	-54.305286
4878.906250	-53.268513
4879.882812	-55.013023
4880.859375	-55.543713
4881.835938	-54.656242
4882.812500	-55.812660
4883.789062	-55.075100
4884.765625	-54.492443
4885.742188	-55.888092
4886.718750	-55.046082
4887.695312	-54.846729
4888.671875	-55.444626
4889.648438	-54.346928
4890.625000	-55.224655
4891.601562	-55.255028
4892.578125	-54.245476
4893.554688	-55.257732
4894.531250	-56.163166
4895.507812	-55.984432
4896.484375	-55.422432
4897.460938	-55.536346
4898.437500	-55.068642
4899.414062	-55.128048
4900.390625	-55.819595
4901.367188	-55.836185
4902.343750	-54.834293
4903.320312	-54.757431
4904.296875	-55.287888
4905.273438	-54.884171
4906.250000	-55.530663
4907.226562	-55.424702
4908.203125	-56.128616
4909.179688	-55.447456
4910.156250	-55.521301
4911.132812	-55.025288
4912.109375	-55.699570
4913.085938	-55.342224
4914.062500	-55.282654
4915.039062	-55.631565
4916.015625	-55.439835
4916.992188	-55.937481
4917.968750	-55.507416
4918.945312	-56.130833
4919.921875	-55.688908
4920.898438	-55.848232
4921.875000	-56.440067
4922.851562	-55.775833
4923.828125	-55.635925
4924.804688	-56.237755
4925.781250	-55.798141
4926.757812	-56.342915
4927.734375	-55.073524
4928.710938	-56.179928
4929.687500	-55.567062
4930.664062	-56.080013
4931.640625	-55.938408
4932.617188	-56.205242
4933.593750	-55.268261
4934.570312	-55.727257
4935.546875	-56.150391
4936.523438	-56.642639
4937.500000	-56.180573
4938.476562	-56.382740
4939.453125	-55.771679
4940.429688	-55.585617
4941.406250	-56.151024
4942.382812	-55.636429
4943.359375	-56.118168
4944.335938	-56.147625
4945.312500	-56.636005
4946.289062	-55.085030
4947.265625	-55.822189
4948.242188	-56.031757
4949.218750	-56.036686
4950.195312	-56.235622
4951.171875	-56.144196
4952.148438	-56.186951
4953.125000	-55.492142
4954.101562	-55.675850
4955.078125	-56.119041
4956.054688	-56.305687
4957.031250	-54.952164
4958.007812	-55.005489
4958.984375	-55.656235
4959.960938	-56.427147
4960.937500	-55.958260
4961.914062	-56.791668
4962.890625	-55.588333
4963.867188	-56.602901
4964.843750	-56.042564
4965.820312	-56.371449
4966.796875	-55.426319
4967.773438	-55.382504
4968.750000	-56.509769
4969.726562	-57.160370
4970.703125	-55.467125
4971.679688	-57.836456
4972.656250	-55.249496
4973.632812	-56.297340
4974.609375	-56.211147
4975.585938	-55.537506
4976.562500	-57.157742
4977.539062	-56.646435
4978.515625	-56.242485
4979.492188	-56.141384
4980.468750	-56.322063
4981.445312	-56.359734
4982.421875	-55.981277
4983.398438	-57.007206
4984.375000	-56.535011
4985.351562	-55.869926
4986.328125	-55.228333
4987.304688	-55.664879
4988.281250	-55.213196
4989.257812	-55.071377
4990.234375	-55.433529
4991.210938	-54.869690
4992.187500	-55.644131
4993.164062	-56.983696
4994.140625	-57.236717
4995.117188	-56.922638
4996.093750	-56.501114
4997.070312	-56.654926
4998.046875	-55.005821
4999.023438	-56.026367
5000.000000	-55.674667
5000.976562	-56.012100
5001.953125	-55.831615
5002.929688	-55.262981
5003.906250	-56.682533
5004.882812	-56.705425
5005.859375	-56.938713
5006.835938	-56.071323
5007.812500	-56.091965
5008.789062	-56.183495
5009.765625	-56.550884
5010.742188	-55.051517
5011.718750	-55.559986
5012.695312	-55.710880
5013.671875	-55.555073
5014.648438	-56.809784
5015.625000	-55.613888
5016.601562	-55.956646
5017.578125	-56.746918
5018.554688	-55.738346
5019.531250	-55.588562
5020.507812	-55.235748
5021.484375	-56.591263
5022.460938	-56.525043
5023.437500	-57.285378
5024.414062	-55.172489
5025.390625	-56.402145
5026.367188	-57.068634
5027.343750	-56.334469
5028.320312	-55.494858
5029.296875	-56.326973
5030.273438	-56.516132
5031.250000	-56.891674
5032.226562	-56.564545
5033.203125	-54.864834
5034.179688	-54.133221
5035.156250	-55.101486
5036.132812	-56.445389
5037.109375	-54.907642
5038.085938	-56.180260
5039.062500	-55.045479
5040.039062	-55.439758
5041.015625	-54.710651
5041.992188	-55.616768
5042.968750	-54.802334
5043.945312	-55.565048
5044.921875	-55.010529
5045.898438	-55.390663
5046.875000	-54.785519
5047.851562	-55.356110
5048.828125	-54.952099
5049.804688	-56.156059
5050.781250	-55.222851
5051.757812	-54.905285
5052.734375	-55.200428
5053.710938	-54.632317
5054.687500	-55.144440
5055.664062	-55.227829
5056.640625	-55.022686
5057.617188	-55.624161
5058.593750	-54.928833
5059.570312	-55.875332
5060.546875	-54.477848
5061.523438	-54.600506
5062.500000	-56.127922
5063.476562	-55.755814
5064.453125	-55.356003
5065.429688	-55.277493
5066.406250	-54.397690
5067.382812	-54.836670
5068.359375	-56.252117
5069.335938	-55.919121
5070.312500	-54.188049
5071.289062	-54.368614
5072.265625	-55.011581
5073.242188	-55.338116
5074.218750	-54.242210
5075.195312	-55.432419
5076.171875	-54.722466
5077.148438	-55.402832
5078.125000	-55.083546
5079.101562	-55.275402
5080.078125	-53.053719
5081.054688	-55.419502
5082.031250	-54.392715
5083.007812	-55.680817
5083.984375	-54.162445
5084.960938	-54.018105
5085.937500	-54.761456
5086.914062	-53.577541
5087.890625	-53.795048
5088.867188	-54.154728
5089.843750	-55.111679
5090.820312	-54.130428
5091.796875	-53.560589
5092.773438	-54.152641
5093.750000	-54.467251
5094.726562	-55.035683
5095.703125	-55.136364
5096.679688	-54.176399
5097.656250	-55.204472
5098.632812	-54.976147
5099.609375	-53.852451
5100.585938	-53.926208
5101.562500	-54.205116
5102.539062	-53.706100
5103.515625	-53.245216
5104.492188	-53.829506
5105.468750	-54.005535
5106.445312	-54.624187
5107.421875	-54.878273
5108.398438	-53.751892
5109.375000	-53.164814
5110.351562	-53.204700
5111.328125	-52.287262
5112.304688	-52.815887
5113.281250	-53.677567
5114.257812	-54.317589
5115.234375	-53.115181
5116.210938	-53.283371
5117.187500	-52.983410
5118.164062	-53.515938
5119.140625	-54.555897
5120.117188	-53.823112
5121.093750	-53.445610
5122.070312	-53.697178
5123.046875	-53.079384
5124.023438	-53.465996
5125.000000	-52.576046
5125.976562	-53.239002
5126.953125	-53.558571
5127.929688	-52.996235
5128.906250	-53.217152
5129.882812	-53.207077
5130.859375	-52.893810
5131.835938	-53.208412
5132.812500	-53.286591
5133.789062	-51.855854
5134.765625	-53.594990
5135.742188	-52.710880
5136.718750	-51.580742
5137.695312	-52.815136
5138.671875	-51.905575
5139.648438	-53.549179
5140.625000	-51.680096
5141.601562	-51.133430
5142.578125	-52.482853
5143.554688	-53.658276
5144.531250	-52.420502
5145.507812	-51.611828
5146.484375	-52.026260
5147.460938	-50.858852
5148.437500	-51.533714
5149.414062	-52.040222
5150.390625	-51.464073
5151.367188	-51.612263
5152.343750	-52.548893
5153.320312	-52.068386
5154.296875	-50.809662
5155.273438	-50.781643
5156.250000	-49.807812
5157.226562	-51.838737
5158.203125	-52.145233
5159.179688	-51.484745
5160.156250	-51.666592
5161.132812	-51.039650
5162.109375	-50.395405
5163.085938	-49.352993
5164.062500	-49.536388
5165.039062	-50.198982
5166.015625	-50.234360
5166.992188	-48.939190
5167.968750	-49.735451
5168.945312	-49.678463
5169.921875	-50.642712
5170.898438	-50.564629
5171.875000	-49.344398
5172.851562	-49.631458
5173.828125	-50.728886
5174.804688	-49.418907
5175.781250	-50.331402
5176.757812	-51.529362
5177.734375	-50.888660
5178.710938	-48.715286
5179.687500	-49.921913
5180.664062	-49.263950
5181.640625	-49.446541
5182.617188	-50.663216
5183.593750	-49.569866
5184.570312	-49.309155
5185.546875	-49.039726
5186.523438	-48.752338
5187.500000	-48.299522
5188.476562	-49.238811
5189.453125	-47.752434
5190.429688	-49.274235
5191.406250	-48.079544
5192.382812	-47.395981
5193.359375	-49.119541
5194.335938	-48.718304
5195.312500	-47.997131
5196.289062	-48.092171
5197.265625	-49.008278
5198.242188	-48.674709
5199.218750	-46.138035
5200.195312	-46.838367
5201.171875	-47.537029
5202.148438	-47.069942
5203.125000	-47.168022
5204.101562	-48.187031
5205.078125	-47.156975
5206.054688	-46.914143
5207.031250	-46.634300
5208.007812	-46.434261
5208.984375	-46.219414
5209.960938	-46.951427
5210.937500	-46.325542
5211.914062	-47.111504
5212.890625	-47.257084
5213.867188	-46.553429
5214.843750	-46.506847
5215.820312	-45.596813
5216.796875	-46.674263
5217.773438	-47.136265
5218.750000	-45.215874
5219.726562	-46.104851
5220.703125	-46.128307
5221.679688	-44.484032
5222.656250	-44.869976
5223.632812	-45.506737
5224.609375	-43.937267
5225.585938	-44.983944
5226.562500	-46.640640
5227.539062	-43.781147
5228.515625	-44.044479
5229.492188	-45.750420
5230.468750	-44.928276
5231.445312	-44.552368
5232.421875	-44.804962
5233.398438	-44.618313
5234.375000	-44.554939
5235.351562	-43.427841
5236.328125	-42.301094
5237.304688	-42.909908
5238.281250	-45.172272
5239.257812	-44.154293
5240.234375	-43.525566
5241.210938	-44.583752
5242.187500	-42.328949
5243.164062	-43.156055
5244.140625	-43.640488
5245.117188	-44.287861
5246.093750	-43.646896
5247.070312	-43.665081
5248.046875	-43.124210
5249.023438	-44.661453
5250.000000	-42.581097
5250.976562	-42.927559
5251.953125	-44.286129
5252.929688	-43.019421
5253.906250	-42.962852
5254.882812	-42.693909
5255.859375	-42.063198
5256.835938	-41.787628
5257.812500	-42.431171
5258.789062	-41.802032
5259.765625	-42.061996
5260.742188	-42.074856
5261.718750	-42.277557
5262.695312	-42.560493
5263.671875	-42.168625
5264.648438	-43.309093
5265.625000	-43.312233
5266.601562	-41.203491
5267.578125	-40.188320
5268.554688	-43.125309
5269.531250	-43.228523
5270.507812	-41.319492
5271.484375	-42.101341
5272.460938	-41.916397
5273.437500	-43.746136
5274.414062	-42.561638
5275.390625	-41.629787
5276.367188	-42.891251
5277.343750	-43.333164
5278.320312	-43.340782
5279.296875	-43.031990
5280.273438	-43.317028
5281.250000	-42.300007
5282.226562	-42.592136
5283.203125	-43.217079
5284.179688	-42.851276
5285.156250	-42.532787
5286.132812	-42.602234
5287.109375	-43.514629
5288.085938	-42.642078
5289.062500	-43.816235
5290.039062	-42.373615
5291.015625	-42.749565
5291.992188	-42.881741
5292.968750	-43.202175
5293.945312	-43.824696
5294.921875	-44.479740
5295.898438	-43.614689
5296.875000	-43.481850
5297.851562	-43.377197
5298.828125	-44.681320
5299.804688	-44.004604
5300.781250	-44.663273
5301.757812	-44.798328
5302.734375	-43.228134
5303.710938	-44.747372
5304.687500	-45.137695
5305.664062	-44.810764
5306.640625	-44.355167
5307.617188	-44.605705
5308.593750	-45.821159
5309.570312	-43.967392
5310.546875	-44.520248
5311.523438	-45.139019
5312.500000	-45.621506
5313.476562	-45.660625
5314.453125	-46.884972
5315.429688	-46.240772
5316.406250	-45.995556
5317.382812	-46.448566
5318.359375	-46.421223
5319.335938	-46.205528
5320.312500	-46.531513
5321.289062	-44.663300
5322.265625	-46.132908
5323.242188	-47.519566
5324.218750	-46.681068
5325.195312	-45.916054
5326.171875	-45.451191
5327.148438	-47.499756
5328.125000	-46.983212
5329.101562	-45.957176
5330.078125	-48.048061
5331.054688	-48.131435
5332.031250	-46.768887
5333.007812	-47.564991
5333.984375	-48.644608
5334.960938	-47.301102
5335.937500	-47.766994
5336.914062	-46.794350
5337.890625	-48.397110
5338.867188	-48.090130
5339.843750	-47.879623
5340.820312	-47.397984
5341.796875	-48.667374
5342.773438	-48.469418
5343.750000	-47.742027
5344.726562	-49.297806
5345.703125	-48.972359
5346.679688	-49.784264
5347.656250	-50.424248
5348.632812	-48.095047
5349.609375	-49.062653
5350.585938	-47.699898
5351.562500	-48.977886
5352.539062	-49.270252
5353.515625	-47.932709
5354.492188	-48.588043
5355.468750	-49.201061
5356.445312	-49.107521
5357.421875	-50.568920
5358.398438	-48.795586
5359.375000	-49.142712
5360.351562	-48.834824
5361.328125	-48.800228
5362.304688	-49.423733
5363.281250	-49.130421
5364.257812	-49.263336
5365.234375	-49.482887
5366.210938	-49.658184
5367.187500	-49.512367
5368.164062	-50.675552
5369.140625	-49.529606
5370.117188	-49.265442
5371.093750	-49.075878
5372.070312	-50.176464
5373.046875	-50.937641
5374.023438	-50.841858
5375.000000	-50.882446
5375.976562	-50.346085
5376.953125	-49.919235
5377.929688	-49.891071
5378.906250	-50.624359
5379.882812	-50.349731
5380.859375	-49.489174
5381.835938	-50.122841
5382.812500	-50.175755
5383.789062	-51.047791
5384.765625	-50.358418
5385.742188	-50.841915
5386.718750	-50.996643
5387.695312	-51.554062
5388.671875	-51.154797
5389.648438	-50.621449
5390.625000	-51.196358
5391.601562	-50.736362
5392.578125	-50.963638
5393.554688	-52.000065
5394.531250	-51.592220
5395.507812	-51.036591
5396.484375	-50.718506
5397.460938	-51.362282
5398.437500	-51.855213
5399.414062	-51.851421
5400.390625	-50.683704
5401.367188	-51.802559
5402.343750	-50.998226
5403.320312	-52.385021
5404.296875	-51.319839
5405.273438	-50.847206
5406.250000	-51.405605
5407.226562	-52.137962
5408.203125	-52.372231
5409.179688	-52.037651
5410.156250	-51.476746
5411.132812	-52.597897
5412.109375	-51.085556
5413.085938	-52.039734
5414.062500	-51.738361
5415.039062	-51.430088
5416.015625	-51.122704
5416.992188	-51.708118
5417.968750	-52.755291
5418.945312	-52.351700
5419.921875	-52.260548
5420.898438	-52.148083
5421.875000	-52.176804
5422.851562	-52.196053
5423.828125	-52.409008
5424.804688	-51.698444
5425.781250	-51.776566
5426.757812	-52.126732
5427.734375	-52.629730
5428.710938	-52.632950
5429.687500	-52.715858
5430.664062	-52.883827
5431.640625	-53.214573
5432.617188	-52.509384
5433.593750	-52.965477
5434.570312	-52.407501
5435.546875	-52.381435
5436.523438	-52.787064
5437.500000	-52.444080
5438.476562	-53.023651
5439.453125	-52.877583
5440.429688	-51.481026
5441.406250	-52.559834
5442.382812	-52.355553
5443.359375	-53.434399
5444.335938	-52.237041
5445.312500	-51.840622
5446.289062	-52.731846
5447.265625	-52.820953
5448.242188	-52.998962
5449.218750	-53.149139
5450.195312	-52.274940
5451.171875	-53.626274
5452.148438	-53.283176
5453.125000	-52.391335
5454.101562	-55.519218
5455.078125	-53.752316
5456.054688	-54.129673
5457.031250	-52.619717
5458.007812	-52.254196
5458.984375	-53.453434
5459.960938	-52.926216
5460.937500	-53.749733
5461.914062	-53.400917
5462.890625	-52.155148
5463.867188	-52.764454
5464.843750	-54.044270
5465.820312	-53.089241
5466.796875	-52.702885
5467.773438	-53.278198
5468.750000	-52.131481
5469.726562	-53.194736
5470.703125	-53.079788
5471.679688	-54.741718
5472.656250	-52.887951
5473.632812	-52.037823
5474.609375	-53.775867
5475.585938	-53.541348
5476.562500	-52.988823
5477.539062	-53.057426
5478.515625	-52.313988
5479.492188	-53.153595
5480.468750	-54.135788
5481.445312	-52.442638
5482.421875	-52.802113
5483.398438	-53.706219
5484.375000	-53.184113
5485.351562	-52.566059
5486.328125	-53.365517
5487.304688	-53.674549
5488.281250	-54.263718
5489.257812	-53.932343
5490.234375	-53.606873
5491.210938	-52.604206
5492.187500	-52.961105
5493.164062	-52.790623
5494.140625	-52.929333
5495.117188	-53.727951
5496.093750	-53.858673
5497.070312	-53.766804
5498.046875	-52.580410
5499.023438	-52.333149
5500.000000	-53.949047
5500.976562	-53.621891
5501.953125	-52.377789
5502.929688	-53.546196
5503.906250	-54.528168
5504.882812	-54.362701
5505.859375	-53.189953
5506.835938	-53.360020
5507.812500	-54.660545
5508.789062	-53.965706
5509.765625	-53.033119
5510.742188	-53.565407
5511.718750	-53.358788
5512.695312	-53.187065
5513.671875	-54.135498
5514.648438	-53.733063
5515.625000	-52.937164
5516.601562	-52.130787
5517.578125	-54.708206
5518.554688	-53.303238
5519.531250	-52.852810
5520.507812	-54.281109
5521.484375	-53.209339
5522.460938	-53.795906
5523.437500	-52.655602
5524.414062	-52.515518
5525.390625	-53.489449
5526.367188	-52.625984
5527.343750	-52.755871
5528.320312	-53.382366
5529.296875	-52.972790
5530.273438	-53.508663
5531.250000	-54.188793
5532.226562	-54.267605
5533.203125	-55.222500
5534.179688	-52.848869
5535.156250	-53.628811
5536.132812	-53.397465
5537.109375	-54.068169
5538.085938	-53.124947
5539.062500	-53.576721
5540.039062	-51.984898
5541.015625	-53.496178
5541.992188	-52.690468
5542.968750	-53.963474
5543.945312	-53.460331
5544.921875	-53.598179
5545.898438	-53.649227
5546.875000	-54.581398
5547.851562	-53.546513
5548.828125	-52.879227
5549.804688	-53.332764
5550.781250	-52.845367
5551.757812	-53.924637
5552.734375	-54.061459
5553.710938	-53.101109
5554.687500	-52.150188
5555.664062	-53.591587
5556.640625	-52.967499
5557.617188	-53.026234
5558.593750	-52.695908
5559.570312	-54.250145
5560.546875	-53.382431
5561.523438	-53.074554
5562.500000	-53.975548
5563.476562	-53.883080
5564.453125	-53.034412
5565.429688	-52.974236
5566.406250	-53.450378
5567.382812	-52.457127
5568.359375	-52.850178
5569.335938	-53.094589
5570.312500	-54.780132
5571.289062	-53.773643
5572.265625	-53.569344
5573.242188	-52.410530
5574.218750	-52.866753
5575.195312	-52.444126
5576.171875	-53.590443
5577.148438	-54.445293
5578.125000	-53.830227
5579.101562	-53.397785
5580.078125	-53.193062
5581.054688	-52.394749
5582.031250	-52.558937
5583.007812	-53.162548
5583.984375	-53.097370
5584.960938	-52.320885
5585.937500	-52.575760
5586.914062	-52.677494
5587.890625	-53.132214
5588.867188	-52.613140
5589.843750	-53.149921
5590.820312	-51.884583
5591.796875	-53.236015
5592.773438	-52.399731
5593.750000	-52.751919
5594.726562	-52.027790
5595.703125	-52.433117
5596.679688	-53.366749
5597.656250	-53.025684
5598.632812	-53.093121
5599.609375	-52.285973
5600.585938	-51.998852
5601.562500	-51.656395
5602.539062	-53.614956
5603.515625	-54.405247
5604.492188	-53.411816
5605.468750	-51.538219
5606.445312	-52.769474
5607.421875	-53.418301
5608.398438	-51.398769
5609.375000	-51.737816
5610.351562	-52.030270
5611.328125	-52.454147
5612.304688	-53.440800
5613.281250	-51.938133
5614.257812	-50.674171
5615.234375	-50.680729
5616.210938	-51.998306
5617.187500	-53.202736
5618.164062	-53.162254
5619.140625	-52.265423
5620.117188	-51.887928
5621.093750	-52.016430
5622.070312	-52.238457
5623.046875	-52.072445
5624.023438	-50.927368
5625.000000	-53.735821
5625.976562	-51.462444
5626.953125	-51.067375
5627.929688	-53.031506
5628.906250	-51.764687
5629.882812	-51.448467
5630.859375	-52.027706
5631.835938	-51.970860
5632.812500	-53.389744
5633.789062	-52.285820
5634.765625	-50.801350
5635.742188	-52.085346
5636.718750	-51.873974
5637.695312	-53.023930
5638.671875	-51.813110
5639.648438	-51.106552
5640.625000	-51.167194
5641.601562	-50.285938
5642.578125	-51.122990
5643.554688	-51.563152
5644.531250	-50.593124
5645.507812	-50.647476
5646.484375	-51.306839
5647.460938	-51.449993
5648.437500	-50.631832
5649.414062	-51.893723
5650.390625	-51.541386
5651.367188	-50.856548
5652.343750	-50.428600
5653.320312	-50.452065
5654.296875	-50.727188
5655.273438	-50.851887
5656.250000	-50.638760
5657.226562	-49.495651
5658.203125	-50.783699
5659.179688	-50.515747
5660.156250	-50.119175
5661.132812	-51.318893
5662.109375	-52.341560
5663.085938	-51.193901
5664.062500	-50.837605
5665.039062	-51.571030
5666.015625	-50.244728
5666.992188	-50.409821
5667.968750	-50.485638
5668.945312	-50.574043
5669.921875	-49.719986
5670.898438	-50.028774
5671.875000	-51.543827
5672.851562	-50.866371
5673.828125	-50.691422
5674.804688	-50.934784
5675.781250	-50.598782
5676.757812	-49.365200
5677.734375	-51.173626
5678.710938	-49.560665
5679.687500	-50.128487
5680.664062	-50.375263
5681.640625	-50.189899
5682.617188	-49.710224
5683.593750	-49.249729
5684.570312	-49.761074
5685.546875	-48.815639
5686.523438	-49.973274
5687.500000	-49.209846
5688.476562	-50.231434
5689.453125	-49.448673
5690.429688	-48.623024
5691.406250	-49.630997
5692.382812	-49.313034
5693.359375	-49.999142
5694.335938	-48.777473
5695.312500	-48.589046
5696.289062	-48.932888
5697.265625	-49.403801
5698.242188	-50.647675
5699.218750	-48.161434
5700.195312	-47.414181
5701.171875	-48.279125
5702.148438	-49.461552
5703.125000	-49.028549
5704.101562	-48.132748
5705.078125	-49.237938
5706.054688	-50.759117
5707.031250	-49.456970
5708.007812	-47.360016
5708.984375	-48.218769
5709.960938	-48.009727
5710.937500	-47.806702
5711.914062	-49.258430
5712.890625	-47.627415
5713.867188	-48.228809
5714.843750	-46.754601
5715.820312	-47.437462
5716.796875	-47.066948
5717.773438	-48.720043
5718.750000	-47.661755
5719.726562	-48.200439
5720.703125	-48.756355
5721.679688	-46.380966
5722.656250	-48.686409
5723.632812	-47.257271
5724.609375	-47.008781
5725.585938	-45.977459
5726.562500	-47.934788
5727.539062	-48.013737
5728.515625	-48.032349
5729.492188	-46.873478
5730.468750	-47.122860
5731.445312	-46.955349
5732.421875	-47.327557
5733.398438	-46.418537
5734.375000	-47.898705
5735.351562	-47.927094
5736.328125	-46.731758
5737.304688	-47.146626
5738.281250	-47.617374
5739.257812	-47.262081
5740.234375	-45.693966
5741.210938	-46.374634
5742.187500	-47.821507
5743.164062	-46.235008
5744.140625	-44.497845
5745.117188	-47.188194
5746.093750	-45.331974
5747.070312	-46.673214
5748.046875	-45.382172
5749.023438	-45.681606
5750.000000	-45.306503
5750.976562	-45.835938
5751.953125	-46.100311
5752.929688	-45.913712
5753.906250	-47.009514
5754.882812	-45.136223
5755.859375	-45.078884
5756.835938	-44.647903
5757.812500	-46.241867
5758.789062	-46.083969
5759.765625	-44.883652
5760.742188	-46.447247
5761.718750	-44.962055
5762.695312	-45.125069
5763.671875	-45.140106
5764.648438	-45.377396
5765.625000	-45.306221
5766.601562	-46.892101
5767.578125	-45.352402
5768.554688	-44.680828
5769.531250	-44.805099
5770.507812	-44.670101
5771.484375	-47.481159
5772.460938	-45.563858
5773.437500	-45.985893
5774.414062	-44.928345
5775.390625	-46.087002
5776.367188	-44.343307
5777.343750	-45.557793
5778.320312	-45.317570
5779.296875	-44.907314
5780.273438	-45.443279
5781.250000	-45.424919
5782.226562	-44.688442
5783.203125	-43.398052
5784.179688	-43.023460
5785.156250	-43.830090
5786.132812	-43.636745
5787.109375	-44.276398
5788.085938	-44.803452
5789.062500	-43.811375
5790.039062	-44.186760
5791.015625	-44.509483
5791.992188	-43.925266
5792.968750	-43.795418
5793.945312	-44.433662
5794.921875	-44.027275
5795.898438	-44.756683
5796.875000	-44.210567
5797.851562	-43.652985
5798.828125	-44.893105
5799.804688	-44.748512
5800.781250	-43.403339
5801.757812	-44.125492
5802.734375	-44.083843
5803.710938	-43.782349
5804.687500	-44.722771
5805.664062	-44.946888
5806.640625	-43.474728
5807.617188	-45.114353
5808.593750	-42.983788
5809.570312	-43.810055
5810.546875	-44.526348
5811.523438	-44.196014
5812.500000	-44.038563
5813.476562	-43.793640
5814.453125	-44.130424
5815.429688	-43.854568
5816.406250	-45.050751
5817.382812	-43.490582
5818.359375	-43.594933
5819.335938	-43.399033
5820.312500	-43.393574
5821.289062	-45.866882
5822.265625	-45.763969
5823.242188	-44.413319
5824.218750	-42.967003
5825.195312	-44.761436
5826.171875	-43.806339
5827.148438	-43.721043
5828.125000	-44.200108
5829.101562	-44.664165
5830.078125	-43.404530
5831.054688	-42.716705
5832.031250	-44.626652
5833.007812	-44.224049
5833.984375	-44.079750
5834.960938	-45.942772
5835.937500	-45.727089
5836.914062	-44.825916
5837.890625	-44.245392
5838.867188	-43.423733
5839.843750	-43.415829
5840.820312	-44.261597
5841.796875	-44.599182
5842.773438	-44.537281
5843.750000	-43.589619
5844.726562	-42.753780
5845.703125	-45.853592
5846.679688	-44.168888
5847.656250	-44.386837
5848.632812	-44.595699
5849.609375	-44.389584
5850.585938	-45.340157
5851.562500	-45.755131
5852.539062	-45.248219
5853.515625	-45.026726
5854.492188	-43.135590
5855.468750	-45.208691
5856.445312	-45.258652
5857.421875	-46.306187
5858.398438	-45.425171
5859.375000	-46.663837
5860.351562	-44.532688
5861.328125	-45.376015
5862.304688	-45.500114
5863.281250	-44.312920
5864.257812	-46.035755
5865.234375	-44.870708
5866.210938	-45.405807
5867.187500	-45.865261
5868.164062	-44.850189
5869.140625	-46.194500
5870.117188	-44.468719
5871.093750	-46.701813
5872.070312	-45.706562
5873.046875	-46.542332
5874.023438	-46.792507
5875.000000	-46.020855
5875.976562	-45.564831
5876.953125	-46.808369
5877.929688	-45.251778
5878.906250	-45.456223
5879.882812	-45.790447
5880.859375	-45.746086
5881.835938	-46.760517
5882.812500	-45.717346
5883.789062	-45.579098
5884.765625	-46.152081
5885.742188	-45.491386
5886.718750	-45.656860
5887.695312	-46.865040
5888.671875	-46.103699
5889.648438	-44.841053
5890.625000	-45.845100
5891.601562	-46.614880
5892.578125	-46.211330
5893.554688	-46.539536
5894.531250	-47.364643
5895.507812	-46.170338
5896.484375	-46.424728
5897.460938	-47.327026
5898.437500	-47.383785
5899.414062	-45.307560
5900.390625	-47.737835
5901.367188	-46.261234
5902.343750	-48.061436
5903.320312	-47.696877
5904.296875	-46.182716
5905.273438	-46.271690
5906.250000	-46.632633
5907.226562	-46.935631
5908.203125	-46.995258
5909.179688	-46.948261
5910.156250	-47.096607
5911.132812	-47.775475
5912.109375	-46.035805
5913.085938	-46.639042
5914.062500	-46.849014
5915.039062	-48.760616
5916.015625	-47.270947
5916.992188	-46.574196
5917.968750	-45.939304
5918.945312	-47.171864
5919.921875	-45.503998
5920.898438	-46.569893
5921.875000	-47.345024
5922.851562	-47.852077
5923.828125	-47.855446
5924.804688	-47.874592
5925.781250	-47.553841
5926.757812	-47.733837
5927.734375	-48.170330
5928.710938	-47.688366
5929.687500	-48.208557
5930.664062	-48.895195
5931.640625	-47.238190
5932.617188	-46.767311
5933.593750	-47.690079
5934.570312	-47.807644
5935.546875	-47.304932
5936.523438	-48.032631
5937.500000	-47.270691
5938.476562	-47.394619
5939.453125	-47.426910
5940.429688	-45.598736
5941.406250	-47.422039
5942.382812	-47.764511
5943.359375	-47.922775
5944.335938	-46.355812
5945.312500	-47.338333
5946.289062	-47.677795
5947.265625	-47.557156
5948.242188	-48.037075
5949.218750	-47.495358
5950.195312	-47.950779
5951.171875	-47.705460
5952.148438	-47.215195
5953.125000	-48.694138
5954.101562	-48.256321
5955.078125	-47.279610
5956.054688	-46.622730
5957.031250	-47.238346
5958.007812	-48.540154
5958.984375	-48.874863
5959.960938	-46.967384
5960.937500	-47.743969
5961.914062	-47.668411
5962.890625	-47.804356
5963.867188	-48.584103
5964.843750	-49.111927
5965.820312	-48.109325
5966.796875	-46.700268
5967.773438	-47.655735
5968.750000	-49.875023
5969.726562	-48.094578
5970.703125	-48.869244
5971.679688	-47.739277
5972.656250	-48.266899
5973.632812	-48.471134
5974.609375	-47.523113
5975.585938	-48.447182
5976.562500	-49.293491
5977.539062	-48.156570
5978.515625	-48.850151
5979.492188	-49.039753
5980.468750	-49.945339
5981.445312	-48.388081
5982.421875	-47.795067
5983.398438	-48.185020
5984.375000	-48.053299
5985.351562	-48.457394
5986.328125	-48.093864
5987.304688	-48.813759
5988.281250	-48.327553
5989.257812	-48.834412
5990.234375	-48.974281
5991.210938	-49.218346
5992.187500	-47.870438
5993.164062	-48.414650
5994.140625	-47.872486
5995.117188	-49.788921
5996.093750	-48.787907
5997.070312	-48.296684
5998.046875	-49.680744
5999.023438	-50.146961
6000.000000	-49.066536
6000.976562	-49.156902
6001.953125	-48.589230
6002.929688	-47.675713
6003.906250	-48.863979
6004.882812	-49.858479
6005.859375	-49.908703
6006.835938	-47.897247
6007.812500	-48.984043
6008.789062	-48.167896
6009.765625	-48.237541
6010.742188	-49.169483
6011.718750	-49.422745
6012.695312	-47.402012
6013.671875	-50.093781
6014.648438	-49.516014
6015.625000	-47.639847
6016.601562	-48.623848
6017.578125	-49.282753
6018.554688	-48.831944
6019.531250	-47.683464
6020.507812	-49.149620
6021.484375	-47.874477
6022.460938	-48.776653
6023.437500	-49.303349
6024.414062	-48.628136
6025.390625	-49.988541
6026.367188	-48.680794
6027.343750	-49.297985
6028.320312	-48.648468
6029.296875	-48.553600
6030.273438	-48.552025
6031.250000	-48.706917
6032.226562	-48.527683
6033.203125	-49.495804
6034.179688	-48.744366
6035.156250	-48.353832
6036.132812	-48.710236
6037.109375	-49.483105
6038.085938	-49.240963
6039.062500	-49.001621
6040.039062	-48.879429
6041.015625	-48.891567
6041.992188	-47.596706
6042.968750	-47.759567
6043.945312	-48.133930
6044.921875	-48.253944
6045.898438	-48.570904
6046.875000	-48.543999
6047.851562	-49.069637
6048.828125	-48.545525
6049.804688	-48.528481
6050.781250	-47.899082
6051.757812	-48.898109
6052.734375	-48.676949
6053.710938	-48.995869
6054.687500	-48.787457
6055.664062	-47.945732
6056.640625	-49.373589
6057.617188	-49.014164
6058.593750	-48.430256
6059.570312	-48.494148
6060.546875	-48.038109
6061.523438	-47.247169
6062.500000	-47.946587
6063.476562	-48.711964
6064.453125	-47.495045
6065.429688	-47.949936
6066.406250	-48.400429
6067.382812	-48.466286
6068.359375	-48.584560
6069.335938	-48.740097
6070.312500	-47.991451
6071.289062	-48.756248
6072.265625	-49.239597
6073.242188	-48.912281
6074.218750	-47.937733
6075.195312	-50.030529
6076.171875	-48.685226
6077.148438	-48.891792
6078.125000	-48.430740
6079.101562	-47.574711
6080.078125	-49.159695
6081.054688	-48.091576
6082.031250	-49.249653
6083.007812	-47.798862
6083.984375	-47.478825
6084.960938	-47.901447
6085.937500	-49.552753
6086.914062	-47.753464
6087.890625	-48.104351
6088.867188	-48.386028
6089.843750	-48.027588
6090.820312	-49.662136
6091.796875	-48.568436
6092.773438	-48.898140
6093.750000	-48.791256
6094.726562	-48.601723
6095.703125	-48.517811
6096.679688	-47.351963
6097.656250	-48.440022
6098.632812	-48.313133
6099.609375	-49.831219
6100.585938	-49.055107
6101.562500	-49.770756
6102.539062	-48.227329
6103.515625	-48.229980
6104.492188	-47.766365
6105.468750	-49.693752
6106.445312	-49.803783
6107.421875	-47.839462
6108.398438	-47.811012
6109.375000	-49.240013
6110.351562	-49.140213
6111.328125	-47.718105
6112.304688	-48.218796
6113.281250	-48.802624
6114.257812	-48.774334
6115.234375	-49.061348
6116.210938	-48.425915
6117.187500	-47.220314
6118.164062	-47.714622
6119.140625	-48.405674
6120.117188	-48.021313
6121.093750	-48.885204
6122.070312	-47.426586
6123.046875	-47.630970
6124.023438	-48.089485
6125.000000	-49.344139
6125.976562	-48.544193
6126.953125	-48.788765
6127.929688	-48.709442
6128.906250	-49.120361
6129.882812	-47.378616
6130.859375	-47.731766
6131.835938	-48.109360
6132.812500	-49.105606
6133.789062	-49.020462
6134.765625	-49.216045
6135.742188	-49.068153
6136.718750	-48.940922
6137.695312	-48.283516
6138.671875	-48.954437
6139.648438	-48.281738
6140.625000	-48.886795
6141.601562	-49.894577
6142.578125	-49.023495
6143.554688	-48.552483
6144.531250	-48.500118
6145.507812	-48.676895
6146.484375	-47.742687
6147.460938	-48.994484
6148.437500	-48.698433
6149.414062	-48.311073
6150.390625	-48.201740
6151.367188	-48.405163
6152.343750	-49.197514
6153.320312	-49.013512
6154.296875	-49.655136
6155.273438	-48.898647
6156.250000	-49.462234
6157.226562	-49.710552
6158.203125	-49.042133
6159.179688	-49.316662
6160.156250	-49.201626
6161.132812	-48.782207
6162.109375	-48.179813
6163.085938	-48.152328
6164.062500	-49.038475
6165.039062	-49.300426
6166.015625	-48.462650
6166.992188	-48.653397
6167.968750	-47.218472
6168.945312	-47.965179
6169.921875	-49.409985
6170.898438	-49.772144
6171.875000	-49.194878
6172.851562	-48.905869
6173.828125	-48.043800
6174.804688	-48.184307
6175.781250	-48.718758
6176.757812	-47.782043
6177.734375	-47.916561
6178.710938	-48.564751
6179.687500	-49.100719
6180.664062	-49.472847
6181.640625	-49.241840
6182.617188	-48.569469
6183.593750	-49.945488
6184.570312	-49.271111
6185.546875	-47.657970
6186.523438	-49.214226
6187.500000	-48.529469
6188.476562	-50.033314
6189.453125	-49.028095
6190.429688	-49.306091
6191.406250	-47.938965
6192.382812	-50.319180
6193.359375	-47.869526
6194.335938	-48.260246
6195.312500	-48.907974
6196.289062	-48.343117
6197.265625	-49.978458
6198.242188	-48.968365
6199.218750	-48.857468
6200.195312	-48.498432
6201.171875	-49.589058
6202.148438	-48.893429
6203.125000	-49.446358
6204.101562	-48.338795
6205.078125	-49.422218
6206.054688	-49.684155
6207.031250	-48.903358
6208.007812	-49.628902
6208.984375	-49.442616
6209.960938	-49.423847
6210.937500	-49.773964
6211.914062	-49.689129
6212.890625	-48.534180
6213.867188	-49.746670
6214.843750	-48.951332
6215.820312	-49.148178
6216.796875	-50.091705
6217.773438	-50.947308
6218.750000	-50.274124
6219.726562	-50.278332
6220.703125	-49.277630
6221.679688	-48.245117
6222.656250	-49.629852
6223.632812	-51.081009
6224.609375	-50.888916
6225.585938	-49.875938
6226.562500	-49.831211
6227.539062	-50.030369
6228.515625	-49.134232
6229.492188	-49.359482
6230.468750	-49.728161
6231.445312	-49.438488
6232.421875	-50.498882
6233.398438	-49.350651
6234.375000	-49.529045
6235.351562	-48.922455
6236.328125	-49.238918
6237.304688	-50.856758
6238.281250	-50.001289
6239.257812	-48.652416
6240.234375	-49.074810
6241.210938	-49.367092
6242.187500	-48.926365
6243.164062	-50.750809
6244.140625	-49.227070
6245.117188	-49.895432
6246.093750	-49.921982
6247.070312	-50.385147
6248.046875	-49.337467
6249.023438	-49.955704
6250.000000	-49.659760
6250.976562	-50.893421
6251.953125	-51.623947
6252.929688	-51.692505
6253.906250	-49.057899
6254.882812	-50.318035
6255.859375	-49.714272
6256.835938	-50.297333
6257.812500	-51.330811
6258.789062	-50.336994
6259.765625	-50.494900
6260.742188	-49.233391
6261.718750	-49.890293
6262.695312	-50.167679
6263.671875	-50.125366
6264.648438	-50.091408
6265.625000	-50.882549
6266.601562	-49.785896
6267.578125	-49.678513
6268.554688	-50.213886
6269.531250	-50.929195
6270.507812	-50.262573
6271.484375	-49.636841
6272.460938	-50.636505
6273.437500	-50.034405
6274.414062	-50.150219
6275.390625	-49.961964
6276.367188	-49.712872
6277.343750	-50.260345
6278.320312	-49.958565
6279.296875	-50.255199
6280.273438	-50.381088
6281.250000	-51.040287
6282.226562	-51.286972
6283.203125	-50.316177
6284.179688	-50.226616
6285.156250	-50.777782
6286.132812	-51.569527
6287.109375	-51.082954
6288.085938	-50.311424
6289.062500	-50.821636
6290.039062	-50.372986
6291.015625	-51.296764
6291.992188	-50.286079
6292.968750	-51.258663
6293.945312	-50.348675
6294.921875	-51.034035
6295.898438	-51.178982
6296.875000	-50.208210
6297.851562	-48.860264
6298.828125	-50.016262
6299.804688	-51.017906
6300.781250	-50.358135
6301.757812	-50.347317
6302.734375	-51.744381
6303.710938	-50.188587
6304.687500	-50.360069
6305.664062	-50.747635
6306.640625	-50.784740
6307.617188	-49.846062
6308.593750	-52.816551
6309.570312	-51.080463
6310.546875	-51.195938
6311.523438	-51.466343
6312.500000	-50.632023
6313.476562	-51.229595
6314.453125	-52.295769
6315.429688	-53.344200
6316.406250	-51.140865
6317.382812	-51.960339
6318.359375	-52.166962
6319.335938	-53.003384
6320.312500	-53.007973
6321.289062	-52.396481
6322.265625	-51.908947
6323.242188	-51.383408
6324.218750	-52.128986
6325.195312	-51.205009
6326.171875	-53.441647
6327.148438	-52.805843
6328.125000	-52.256687
6329.101562	-50.796673
6330.078125	-51.546764
6331.054688	-50.845833
6332.031250	-50.902119
6333.007812	-50.239807
6333.984375	-51.128567
6334.960938	-51.331120
6335.937500	-51.117985
6336.914062	-51.170975
6337.890625	-51.250050
6338.867188	-50.376480
6339.843750	-50.275074
6340.820312	-51.161381
6341.796875	-51.119926
6342.773438	-51.207245
6343.750000	-52.450397
6344.726562	-52.157585
6345.703125	-51.467777
6346.679688	-50.887264
6347.656250	-51.851112
6348.632812	-50.513374
6349.609375	-52.011463
6350.585938	-51.439152
6351.562500	-52.808182
6352.539062	-52.870777
6353.515625	-52.366261
6354.492188	-52.052513
6355.468750	-51.408733
6356.445312	-52.389359
6357.421875	-51.546566
6358.398438	-50.587971
6359.375000	-51.554310
6360.351562	-50.730392
6361.328125	-52.079990
6362.304688	-50.984756
6363.281250	-50.930149
6364.257812	-52.770847
6365.234375	-52.206741
6366.210938	-52.080383
6367.187500	-52.761967
6368.164062	-52.524429
6369.140625	-53.102337
6370.117188	-52.968006
6371.093750	-51.595890
6372.070312	-51.580849
6373.046875	-53.186787
6374.023438	-53.259289
6375.000000	-51.692528
6375.976562	-51.397274
6376.953125	-50.757458
6377.929688	-51.331032
6378.906250	-51.069862
6379.882812	-52.217312
6380.859375	-52.000336
6381.835938	-51.465317
6382.812500	-51.873089
6383.789062	-52.164925
6384.765625	-52.493198
6385.742188	-51.537903
6386.718750	-52.526642
6387.695312	-52.136700
6388.671875	-50.989937
6389.648438	-52.250549
6390.625000	-53.756847
6391.601562	-51.398106
6392.578125	-52.623352
6393.554688	-52.255398
6394.531250	-52.095257
6395.507812	-53.289768
6396.484375	-50.011372
6397.460938	-53.335793
6398.437500	-51.453529
6399.414062	-51.603344
6400.390625	-51.571621
6401.367188	-51.876255
6402.343750	-51.384850
6403.320312	-51.294746
6404.296875	-52.519093
6405.273438	-51.845329
6406.250000	-52.469490
6407.226562	-52.149731
6408.203125	-52.609684
6409.179688	-52.967346
6410.156250	-52.559521
6411.132812	-52.914413
6412.109375	-51.708336
6413.085938	-50.766468
6414.062500	-51.338104
6415.039062	-51.589916
6416.015625	-51.504971
6416.992188	-52.823734
6417.968750	-51.485439
6418.945312	-51.849136
6419.921875	-51.587727
6420.898438	-51.746716
6421.875000	-51.986382
6422.851562	-52.250103
6423.828125	-51.921730
6424.804688	-52.200657
6425.781250	-52.346905
6426.757812	-51.991272
6427.734375	-51.530094
6428.710938	-51.369839
6429.687500	-52.475922
6430.664062	-50.998093
6431.640625	-51.489235
6432.617188	-50.733604
6433.593750	-52.782291
6434.570312	-51.029221
6435.546875	-51.918407
6436.523438	-51.856007
6437.500000	-50.486862
6438.476562	-50.919083
6439.453125	-50.662277
6440.429688	-51.393925
6441.406250	-51.507214
6442.382812	-51.184547
6443.359375	-50.190334
6444.335938	-51.259388
6445.312500	-51.092762
6446.289062	-51.922195
6447.265625	-51.080635
6448.242188	-51.032040
6449.218750	-52.808575
6450.195312	-52.905560
6451.171875	-51.764427
6452.148438	-52.234905
6453.125000	-52.468067
6454.101562	-51.500893
6455.078125	-51.806381
6456.054688	-52.361431
6457.031250	-51.768948
6458.007812	-51.389790
6458.984375	-49.243980
6459.960938	-52.626236
6460.937500	-50.989101
6461.914062	-51.930275
6462.890625	-51.187260
6463.867188	-51.503952
6464.843750	-50.892490
6465.820312	-49.648323
6466.796875	-50.499607
6467.773438	-50.803116
6468.750000	-50.109497
6469.726562	-50.370377
6470.703125	-49.885201
6471.679688	-50.334679
6472.656250	-50.757233
6473.632812	-51.284428
6474.609375	-50.681946
6475.585938	-51.080521
6476.562500	-50.639080
6477.539062	-51.831261
6478.515625	-50.513977
6479.492188	-49.953529
6480.468750	-50.215485
6481.445312	-49.617138
6482.421875	-50.363113
6483.398438	-50.565437
6484.375000	-50.546684
6485.351562	-51.678562
6486.328125	-50.451904
6487.304688	-51.389626
6488.281250	-50.151627
6489.257812	-49.695614
6490.234375	-49.639088
6491.210938	-51.194881
6492.187500	-50.188648
6493.164062	-50.423222
6494.140625	-49.540848
6495.117188	-50.333256
6496.093750	-51.577026
6497.070312	-49.946278
6498.046875	-50.004215
6499.023438	-48.715698
6500.000000	-50.455368
6500.976562	-49.422768
6501.953125	-51.144417
6502.929688	-50.648575
6503.906250	-50.085438
6504.882812	-50.574615
6505.859375	-51.507652
6506.835938	-49.850197
6507.812500	-50.457050
6508.789062	-50.469769
6509.765625	-50.157906
6510.742188	-50.343586
6511.718750	-49.520672
6512.695312	-49.550735
6513.671875	-50.814892
6514.648438	-50.561768
6515.625000	-50.233196
6516.601562	-50.776058
6517.578125	-50.191338
6518.554688	-50.596741
6519.531250	-52.236439
6520.507812	-50.627468
6521.484375	-49.533932
6522.460938	-49.705761
6523.437500	-49.012379
6524.414062	-49.169312
6525.390625	-50.418587
6526.367188	-51.393646
6527.343750	-49.655437
6528.320312	-50.197388
6529.296875	-49.499588
6530.273438	-51.231438
6531.250000	-49.386166
6532.226562	-50.245296
6533.203125	-50.929035
6534.179688	-49.499092
6535.156250	-50.402424
6536.132812	-52.126045
6537.109375	-50.945782
6538.085938	-48.770714
6539.062500	-50.443142
6540.039062	-49.666103
6541.015625	-50.170139
6541.992188	-50.251434
6542.968750	-51.522545
6543.945312	-51.560677
6544.921875	-51.305687
6545.898438	-51.120686
6546.875000	-50.284672
6547.851562	-49.848286
6548.828125	-49.853516
6549.804688	-50.355331
6550.781250	-49.964085
6551.757812	-50.721619
6552.734375	-50.001942
6553.710938	-50.984341
6554.687500	-50.672398
6555.664062	-50.798820
6556.640625	-51.807846
6557.617188	-51.268181
6558.593750	-50.740894
6559.570312	-51.209053
6560.546875	-50.940838
6561.523438	-50.156780
6562.500000	-50.933681
6563.476562	-50.932930
6564.453125	-51.599689
6565.429688	-51.580265
6566.406250	-50.127586
6567.382812	-51.065868
6568.359375	-50.084198
6569.335938	-52.391716
6570.312500	-51.415771
6571.289062	-50.585140
6572.265625	-50.677734
6573.242188	-52.245937
6574.218750	-50.822121
6575.195312	-52.186218
6576.171875	-50.859428
6577.148438	-51.203705
6578.125000	-52.212009
6579.101562	-51.235771
6580.078125	-51.822811
6581.054688	-51.674252
6582.031250	-51.812946
6583.007812	-52.602264
6583.984375	-51.609238
6584.960938	-51.537308
6585.937500	-50.617908
6586.914062	-52.171703
6587.890625	-52.300381
6588.867188	-52.522793
6589.843750	-50.752125
6590.820312	-51.999279
6591.796875	-51.979927
6592.773438	-51.775944
6593.750000	-51.485172
6594.726562	-51.950413
6595.703125	-50.743977
6596.679688	-51.877872
6597.656250	-53.137501
6598.632812	-52.689777
6599.609375	-52.397907
6600.585938	-53.073505
6601.562500	-52.626652
6602.539062	-53.637440
6603.515625	-52.115059
6604.492188	-53.568283
6605.468750	-52.238071
6606.445312	-52.702732
6607.421875	-53.122154
6608.398438	-53.027813
6609.375000	-53.600082
6610.351562	-52.796955
6611.328125	-53.163624
6612.304688	-54.476173
6613.281250	-51.929142
6614.257812	-53.199390
6615.234375	-52.995609
6616.210938	-52.665611
6617.187500	-54.405777
6618.164062	-54.033291
6619.140625	-54.404644
6620.117188	-53.546509
6621.093750	-52.773876
6622.070312	-54.364876
6623.046875	-53.335514
6624.023438	-54.768818
6625.000000	-53.643490
6625.976562	-53.864265
6626.953125	-54.317421
6627.929688	-54.745228
6628.906250	-54.210430
6629.882812	-54.520687
6630.859375	-53.828220
6631.835938	-54.844124
6632.812500	-54.028599
6633.789062	-55.337673
6634.765625	-53.878555
6635.742188	-54.742455
6636.718750	-55.014732
6637.695312	-54.465656
6638.671875	-54.670792
6639.648438	-55.405743
6640.625000	-54.825001
6641.601562	-55.286438
6642.578125	-55.914104
6643.554688	-56.174080
6644.531250	-53.967636
6645.507812	-55.808338
6646.484375	-54.553146
6647.460938	-55.288853
6648.437500	-55.338032
6649.414062	-54.978889
6650.390625	-54.474949
6651.367188	-55.264919
6652.343750	-55.298637
6653.320312	-55.308960
6654.296875	-55.280235
6655.273438	-56.742432
6656.250000	-55.962860
6657.226562	-56.959026
6658.203125	-55.611038
6659.179688	-55.920963
6660.156250	-57.811604
6661.132812	-55.651550
6662.109375	-57.280415
6663.085938	-57.805450
6664.062500	-57.084362
6665.039062	-57.135075
6666.015625	-57.889347
6666.992188	-57.370258
6667.968750	-57.444565
6668.945312	-57.952034
6669.921875	-56.927467
6670.898438	-56.951385
6671.875000	-57.688828
6672.851562	-58.590691
6673.828125	-58.224354
6674.804688	-57.880104
6675.781250	-57.632816
6676.757812	-57.300087
6677.734375	-57.408978
6678.710938	-57.145592
6679.687500	-57.721485
6680.664062	-57.412746
6681.640625	-58.090668
6682.617188	-57.181553
6683.593750	-58.248009
6684.570312	-59.336193
6685.546875	-58.593407
6686.523438	-57.581345
6687.500000	-57.590023
6688.476562	-57.381725
6689.453125	-57.741463
6690.429688	-59.092083
6691.406250	-59.067795
6692.382812	-58.248547
6693.359375	-58.148350
6694.335938	-59.150948
6695.312500	-59.100536
6696.289062	-58.157070
6697.265625	-58.034378
6698.242188	-59.276245
6699.218750	-59.049606
6700.195312	-58.775394
6701.171875	-59.246391
6702.148438	-58.848614
6703.125000	-59.644577
6704.101562	-59.069016
6705.078125	-58.385654
6706.054688	-59.191128
6707.031250	-60.045319
6708.007812	-58.940006
6708.984375	-59.524090
6709.960938	-58.757698
6710.937500	-59.388496
6711.914062	-59.833691
6712.890625	-59.884422
6713.867188	-60.165466
6714.843750	-59.625839
6715.820312	-59.828186
6716.796875	-59.449955
6717.773438	-60.326481
6718.750000	-60.569138
6719.726562	-60.628288
6720.703125	-60.566826
6721.679688	-59.736000
6722.656250	-60.893524
6723.632812	-60.189980
6724.609375	-59.647667
6725.585938	-61.127518
6726.562500	-61.622250
6727.539062	-58.747955
6728.515625	-60.672813
6729.492188	-60.872047
6730.468750	-60.983154
6731.445312	-61.712372
6732.421875	-60.259483
6733.398438	-60.853596
6734.375000	-61.332386
6735.351562	-60.737095
6736.328125	-60.824348
6737.304688	-60.510406
6738.281250	-61.178810
6739.257812	-60.551228
6740.234375	-61.839127
6741.210938	-61.356056
6742.187500	-61.121822
6743.164062	-61.006004
6744.140625	-60.739590
6745.117188	-61.073376
6746.093750	-61.474716
6747.070312	-60.724064
6748.046875	-62.941692
6749.023438	-61.761509
6750.000000	-60.872414
6750.976562	-60.612026
6751.953125	-62.481747
6752.929688	-61.637398
6753.906250	-62.824379
6754.882812	-61.916050
6755.859375	-60.849228
6756.835938	-61.740517
6757.812500	-62.882103
6758.789062	-62.293915
6759.765625	-62.379063
6760.742188	-62.402493
6761.718750	-62.239353
6762.695312	-62.330563
6763.671875	-62.593761
6764.648438	-62.449883
6765.625000	-61.710384
6766.601562	-61.292786
6767.578125	-61.619537
6768.554688	-62.192390
6769.531250	-62.317738
6770.507812	-62.578972
6771.484375	-62.896259
6772.460938	-63.999249
6773.437500	-63.036797
6774.414062	-62.933369
6775.390625	-63.082355
6776.367188	-63.339954
6777.343750	-62.313232
6778.320312	-63.585396
6779.296875	-62.467651
6780.273438	-64.214737
6781.250000	-64.027000
6782.226562	-63.909679
6783.203125	-63.506088
6784.179688	-63.856007
6785.156250	-62.695408
6786.132812	-62.807640
6787.109375	-64.418755
6788.085938	-62.961021
6789.062500	-63.775661
6790.039062	-63.041977
6791.015625	-62.879562
6791.992188	-63.532063
6792.968750	-64.592979
6793.945312	-63.702900
6794.921875	-64.376602
6795.898438	-62.421715
6796.875000	-62.790161
6797.851562	-63.104671
6798.828125	-63.054977
6799.804688	-64.025551
6800.781250	-63.246723
6801.757812	-64.245491
6802.734375	-63.494194
6803.710938	-62.779537
6804.687500	-64.199913
6805.664062	-63.786968
6806.640625	-62.981865
6807.617188	-65.799156
6808.593750	-64.318497
6809.570312	-63.368576
6810.546875	-63.436619
6811.523438	-65.314941
6812.500000	-63.878914
6813.476562	-63.907898
6814.453125	-64.633415
6815.429688	-65.306969
6816.406250	-63.941853
6817.382812	-63.997334
6818.359375	-64.696075
6819.335938	-64.209358
6820.312500	-64.241623
6821.289062	-64.512115
6822.265625	-64.428993
6823.242188	-63.985088
6824.218750	-64.904030
6825.195312	-64.224152
6826.171875	-64.300354
6827.148438	-64.468193
6828.125000	-65.199402
6829.101562	-64.453178
6830.078125	-65.231316
6831.054688	-64.442741
6832.031250	-64.040604
6833.007812	-65.411392
6833.984375	-64.322350
6834.960938	-65.258247
6835.937500	-63.900955
6836.914062	-64.848160
6837.890625	-66.047623
6838.867188	-65.504715
6839.843750	-65.751854
6840.820312	-65.970642
6841.796875	-63.937050
6842.773438	-65.681969
6843.750000	-65.519928
6844.726562	-66.260452
6845.703125	-66.562653
6846.679688	-65.575073
6847.656250	-65.884872
6848.632812	-64.721458
6849.609375	-64.809326
6850.585938	-64.941872
6851.562500	-65.482201
6852.539062	-65.986359
6853.515625	-65.988846
6854.492188	-66.233841
6855.468750	-65.653954
6856.445312	-65.151093
6857.421875	-65.351677
6858.398438	-66.517883
6859.375000	-65.275955
6860.351562	-65.495056
6861.328125	-63.901230
6862.304688	-66.475113
6863.281250	-66.119957
6864.257812	-65.525993
6865.234375	-66.179985
6866.210938	-65.945023
6867.187500	-66.052872
6868.164062	-66.459740
6869.140625	-66.390816
6870.117188	-66.577133
6871.093750	-67.031326
6872.070312	-66.817917
6873.046875	-66.463722
6874.023438	-65.099556
6875.000000	-65.983292
6875.976562	-67.426620
6876.953125	-67.857315
6877.929688	-65.642166
6878.906250	-65.002655
6879.882812	-66.158310
6880.859375	-65.792435
6881.835938	-64.692261
6882.812500	-66.256218
6883.789062	-65.609550
6884.765625	-66.033760
6885.742188	-65.848686
6886.718750	-67.187920
6887.695312	-66.557495
6888.671875	-66.208000
6889.648438	-65.410400
6890.625000	-67.276718
6891.601562	-66.419106
6892.578125	-66.448029
6893.554688	-66.958458
6894.531250	-66.362053
6895.507812	-67.163605
6896.484375	-67.119461
6897.460938	-66.465523
6898.437500	-66.875633
6899.414062	-66.050606
6900.390625	-66.420303
6901.367188	-65.908089
6902.343750	-66.182549
6903.320312	-66.642502
6904.296875	-65.736382
6905.273438	-66.461990
6906.250000	-67.206009
6907.226562	-67.198120
6908.203125	-65.326881
6909.179688	-66.653069
6910.156250	-66.634407
6911.132812	-66.119133
6912.109375	-66.807137
6913.085938	-67.224327
6914.062500	-67.601868
6915.039062	-66.505402
6916.015625	-66.939049
6916.992188	-66.127930
6917.968750	-66.882454
6918.945312	-66.460732
6919.921875	-66.801125
6920.898438	-66.951332
6921.875000	-66.799294
6922.851562	-66.524834
6923.828125	-67.628677
6924.804688	-66.912018
6925.781250	-66.395828
6926.757812	-67.150047
6927.734375	-65.623978
6928.710938	-66.954353
6929.687500	-68.514290
6930.664062	-67.458069
6931.640625	-66.613083
6932.617188	-66.552139
6933.593750	-67.234444
6934.570312	-67.142525
6935.546875	-67.339905
6936.523438	-68.233513
6937.500000	-67.547401
6938.476562	-66.860397
6939.453125	-67.319626
6940.429688	-66.531677
6941.406250	-66.923729
6942.382812	-68.337509
6943.359375	-66.030205
6944.335938	-67.516403
6945.312500	-67.921410
6946.289062	-67.502838
6947.265625	-67.970604
6948.242188	-67.138748
6949.218750	-68.043533
6950.195312	-67.253868
6951.171875	-66.606743
6952.148438	-68.147522
6953.125000	-67.907341
6954.101562	-67.099243
6955.078125	-67.638939
6956.054688	-66.993774
6957.031250	-66.702667
6958.007812	-67.187347
6958.984375	-67.134995
6959.960938	-67.703934
6960.937500	-67.441986
6961.914062	-68.202347
6962.890625	-67.723595
6963.867188	-67.825165
6964.843750	-67.980507
6965.820312	-68.225655
6966.796875	-66.680984
6967.773438	-66.827011
6968.750000	-67.401543
6969.726562	-67.386246
6970.703125	-67.377678
6971.679688	-67.789879
6972.656250	-67.216888
6973.632812	-67.806519
6974.609375	-67.121216
6975.585938	-67.466484
6976.562500	-67.675751
6977.539062	-67.289345
6978.515625	-68.579475
6979.492188	-67.268478
6980.468750	-67.109253
6981.445312	-68.381294
6982.421875	-67.084000
6983.398438	-68.399323
6984.375000	-67.157310
6985.351562	-67.647858
6986.328125	-67.742371
6987.304688	-67.428947
6988.281250	-67.128807
6989.257812	-67.317619
6990.234375	-67.067482
6991.210938	-66.753784
6992.187500	-67.274559
6993.164062	-68.325386
6994.140625	-67.482864
6995.117188	-66.484924
6996.093750	-68.001427
6997.070312	-67.377876
6998.046875	-67.604294
6999.023438	-66.773407
7000.000000	-67.216103
7000.976562	-67.470741
7001.953125	-68.081581
7002.929688	-67.220711
7003.906250	-67.022865
7004.882812	-66.870491
7005.859375	-67.417740
7006.835938	-68.321320
7007.812500	-67.401535
7008.789062	-67.954765
7009.765625	-67.890503
7010.742188	-67.013733
7011.718750	-67.216347
7012.695312	-67.918442
7013.671875	-67.909477
7014.648438	-65.763092
7015.625000	-67.032578
7016.601562	-68.143776
7017.578125	-67.535362
7018.554688	-68.484085
7019.531250	-67.217201
7020.507812	-67.454659
7021.484375	-67.539398
7022.460938	-67.836517
7023.437500	-67.240990
7024.414062	-66.516724
7025.390625	-67.753914
7026.367188	-66.746765
7027.343750	-67.310867
7028.320312	-66.507492
7029.296875	-66.956566
7030.273438	-68.159668
7031.250000	-67.771973
7032.226562	-66.914383
7033.203125	-67.814629
7034.179688	-67.076775
7035.156250	-66.828583
7036.132812	-69.016273
7037.109375	-67.445465
7038.085938	-67.456100
7039.062500	-66.819427
7040.039062	-67.007729
7041.015625	-67.693100
7041.992188	-66.905945
7042.968750	-67.326584
7043.945312	-67.081535
7044.921875	-68.810539
7045.898438	-66.101799
7046.875000	-66.466553
7047.851562	-68.855934
7048.828125	-67.755089
7049.804688	-66.649178
7050.781250	-67.024109
7051.757812	-67.818436
7052.734375	-67.345985
7053.710938	-66.879692
7054.687500	-66.669380
7055.664062	-66.008972
7056.640625	-66.497292
7057.617188	-67.121887
7058.593750	-67.868309
7059.570312	-67.119843
7060.546875	-66.868988
7061.523438	-67.115608
7062.500000	-66.671219
7063.476562	-66.455002
7064.453125	-67.754082
7065.429688	-68.227417
7066.406250	-66.422401
7067.382812	-67.063797
7068.359375	-67.033928
7069.335938	-67.451118
7070.312500	-65.980766
7071.289062	-67.341026
7072.265625	-66.680389
7073.242188	-66.393227
7074.218750	-66.411705
7075.195312	-68.067741
7076.171875	-66.564362
7077.148438	-67.496956
7078.125000	-67.831871
7079.101562	-67.539673
7080.078125	-67.151443
7081.054688	-68.058647
7082.031250	-68.177307
7083.007812	-67.928329
7083.984375	-67.090469
7084.960938	-67.991539
7085.937500	-66.648819
7086.914062	-66.933929
7087.890625	-67.238762
7088.867188	-66.114914
7089.843750	-67.226395
7090.820312	-67.739578
7091.796875	-66.480469
7092.773438	-66.764763
7093.750000	-67.394539
7094.726562	-66.762100
7095.703125	-67.137573
7096.679688	-67.247894
7097.656250	-66.252098
7098.632812	-67.004784
7099.609375	-65.935661
7100.585938	-66.995125
7101.562500	-66.209373
7102.539062	-67.006050
7103.515625	-67.580750
7104.492188	-67.787193
7105.468750	-67.744286
7106.445312	-67.611763
7107.421875	-67.814255
7108.398438	-68.306252
7109.375000	-68.042923
7110.351562	-67.829773
7111.328125	-68.173920
7112.304688	-67.513206
7113.281250	-68.122177
7114.257812	-67.478638
7115.234375	-68.041367
7116.210938	-67.824425
7117.187500	-69.351990
7118.164062	-66.096664
7119.140625	-67.007149
7120.117188	-69.164772
7121.093750	-67.662315
7122.070312	-68.285652
7123.046875	-68.448364
7124.023438	-68.820557
7125.000000	-66.849541
7125.976562	-68.154205
7126.953125	-67.541733
7127.929688	-68.051109
7128.906250	-68.556137
7129.882812	-68.410126
7130.859375	-67.412865
7131.835938	-68.142632
7132.812500	-68.558762
7133.789062	-69.227524
7134.765625	-68.390526
7135.742188	-69.097664
7136.718750	-68.094528
7137.695312	-68.908775
7138.671875	-69.487991
7139.648438	-69.610962
7140.625000	-68.912750
7141.601562	-69.851730
7142.578125	-70.664787
7143.554688	-68.541855
7144.531250	-67.865753
7145.507812	-69.366493
7146.484375	-69.291214
7147.460938	-68.180801
7148.437500	-69.863708
7149.414062	-69.930466
7150.390625	-68.930115
7151.367188	-69.600945
7152.343750	-68.324196
7153.320312	-69.229301
7154.296875	-69.758232
7155.273438	-69.786720
7156.250000	-70.742920
7157.226562	-70.300858
7158.203125	-70.045609
7159.179688	-70.878738
7160.156250	-70.155067
7161.132812	-70.300034
7162.109375	-70.986969
7163.085938	-70.140610
7164.062500	-70.047333
7165.039062	-70.306702
7166.015625	-69.531433
7166.992188	-71.371887
7167.968750	-70.708061
7168.945312	-70.713974
7169.921875	-71.824020
7170.898438	-71.088104
7171.875000	-71.166122
7172.851562	-71.792969
7173.828125	-71.266525
7174.804688	-71.569374
7175.781250	-71.165833
7176.757812	-71.349434
7177.734375	-72.017693
7178.710938	-71.490532
7179.687500	-71.916672
7180.664062	-72.643845
7181.640625	-71.385551
7182.617188	-72.215103
7183.593750	-71.764595
7184.570312	-72.256622
7185.546875	-72.166794
7186.523438	-72.632446
7187.500000	-72.024025
7188.476562	-71.983215
7189.453125	-72.772987
7190.429688	-71.657875
7191.406250	-72.429146
7192.382812	-73.358856
7193.359375	-71.893517
7194.335938	-72.296120
7195.312500	-73.002953
7196.289062	-73.530869
7197.265625	-73.184853
7198.242188	-73.426163
7199.218750	-75.050835
7200.195312	-73.564850
7201.171875	-73.389565
7202.148438	-73.276642
7203.125000	-73.346924
7204.101562	-74.907936
7205.078125	-74.226601
7206.054688	-74.200729
7207.031250	-75.006729
7208.007812	-74.671906
7208.984375	-74.915840
7209.960938	-74.649071
7210.937500	-75.980072
7211.914062	-75.199539
7212.890625	-74.334602
7213.867188	-75.092117
7214.843750	-74.624313
7215.820312	-75.008194
7216.796875	-75.216087
7217.773438	-76.269371
7218.750000	-74.506905
7219.726562	-75.278481
7220.703125	-75.697426
7221.679688	-75.359581
7222.656250	-75.565331
7223.632812	-76.524223
7224.609375	-75.704506
7225.585938	-76.210075
7226.562500	-78.042145
7227.539062	-76.379173
7228.515625	-77.472275
7229.492188	-76.109306
7230.468750	-76.769798
7231.445312	-77.994064
7232.421875	-77.094200
7233.398438	-76.481468
7234.375000	-76.079613
7235.351562	-76.562988
7236.328125	-76.029564
7237.304688	-76.924614
7238.281250	-76.244736
7239.257812	-77.520988
7240.234375	-77.188377
7241.210938	-77.524185
7242.187500	-78.322250
7243.164062	-78.070091
7244.140625	-77.771553
7245.117188	-78.213264
7246.093750	-77.983284
7247.070312	-77.513702
7248.046875	-78.030350
7249.023438	-78.660217
7250.000000	-78.030830
7250.976562	-78.178734
7251.953125	-77.929131
7252.929688	-77.812752
7253.906250	-77.082558
7254.882812	-78.214279
7255.859375	-79.682983
7256.835938	-78.269981
7257.812500	-78.393738
7258.789062	-78.462257
7259.765625	-78.265625
7260.742188	-79.784828
7261.718750	-79.016418
7262.695312	-79.069168
7263.671875	-78.481682
7264.648438	-79.693489
7265.625000	-78.378960
7266.601562	-79.033424
7267.578125	-79.834702
7268.554688	-78.701218
7269.531250	-79.947281
7270.507812	-80.883942
7271.484375	-79.467827
7272.460938	-79.179047
7273.437500	-79.970543
7274.414062	-81.463188
7275.390625	-79.658363
7276.367188	-79.441513
7277.343750	-80.005981
7278.320312	-80.667358
7279.296875	-80.495262
7280.273438	-80.741234
7281.250000	-79.458893
7282.226562	-80.421631
7283.203125	-81.657776
7284.179688	-81.662895
7285.156250	-81.073685
7286.132812	-81.655579
7287.109375	-80.989426
7288.085938	-81.587631
7289.062500	-80.958435
7290.039062	-81.623428
7291.015625	-82.191589
7291.992188	-81.362968
7292.968750	-81.704987
7293.945312	-82.324112
7294.921875	-82.142120
7295.898438	-82.205833
7296.875000	-82.396439
7297.851562	-82.075470
7298.828125	-81.659599
7299.804688	-82.625183
7300.781250	-81.333313
7301.757812	-80.866348
7302.734375	-81.880081
7303.710938	-82.763847
7304.687500	-80.325165
7305.664062	-83.099640
7306.640625	-83.308456
7307.617188	-81.684235
7308.593750	-82.510376
7309.570312	-83.092651
7310.546875	-81.973457
7311.523438	-83.062210
7312.500000	-82.362396
7313.476562	-81.549164
7314.453125	-83.075500
7315.429688	-82.692490
7316.406250	-81.611725
7317.382812	-82.867981
7318.359375	-82.614365
7319.335938	-83.271690
7320.312500	-84.140869
7321.289062	-83.048393
7322.265625	-82.034630
7323.242188	-84.068771
7324.218750	-83.798157
7325.195312	-83.513214
7326.171875	-82.950974
7327.148438	-82.946335
7328.125000	-83.397728
7329.101562	-85.377914
7330.078125	-83.532120
7331.054688	-84.103539
7332.031250	-83.591370
7333.007812	-84.328064
7333.984375	-83.982796
7334.960938	-82.649139
7335.937500	-85.072357
7336.914062	-83.041588
7337.890625	-83.252174
7338.867188	-82.355865
7339.843750	-83.367859
7340.820312	-84.321617
7341.796875	-83.918823
7342.773438	-84.778809
7343.750000	-84.692551
7344.726562	-84.268234
7345.703125	-84.501114
7346.679688	-84.382622
7347.656250	-84.979881
7348.632812	-84.193275
7349.609375	-84.067413
7350.585938	-86.138412
7351.562500	-84.139008
7352.539062	-84.696259
7353.515625	-85.285347
7354.492188	-86.178062
7355.468750	-83.299759
7356.445312	-85.658394
7357.421875	-84.460838
7358.398438	-84.612129
7359.375000	-85.389969
7360.351562	-85.366783
7361.328125	-86.798317
7362.304688	-85.455162
7363.281250	-85.801971
7364.257812	-85.520126
7365.234375	-85.789070
7366.210938	-85.494560
7367.187500	-85.735313
7368.164062	-85.322052
7369.140625	-85.906982
7370.117188	-85.223274
7371.093750	-85.297089
7372.070312	-85.504013
7373.046875	-85.044937
7374.023438	-85.827530
7375.000000	-85.952980
7375.976562	-85.361427
7376.953125	-85.248894
7377.929688	-85.273705
7378.906250	-85.976860
7379.882812	-85.895256
7380.859375	-85.665230
7381.835938	-86.043945
7382.812500	-87.007278
7383.789062	-86.201218
7384.765625	-86.151909
7385.742188	-85.981499
7386.718750	-86.799278
7387.695312	-87.286278
7388.671875	-86.580215
7389.648438	-87.100746
7390.625000	-87.311325
7391.601562	-86.816849
7392.578125	-86.998650
7393.554688	-86.881508
7394.531250	-87.088844
7395.507812	-87.649139
7396.484375	-87.390907
7397.460938	-87.128136
7398.437500	-85.816345
7399.414062	-87.177269
7400.390625	-87.174553
7401.367188	-86.998894
7402.343750	-87.033134
7403.320312	-87.326111
7404.296875	-87.046844
7405.273438	-86.661697
7406.250000	-87.606949
7407.226562	-86.183876
7408.203125	-86.200890
7409.179688	-89.117668
7410.156250	-87.264305
7411.132812	-86.256767
7412.109375	-87.356087
7413.085938	-87.962151
7414.062500	-87.836967
7415.039062	-88.769096
7416.015625	-88.619621
7416.992188	-88.215508
7417.968750	-86.807579
7418.945312	-87.102341
7419.921875	-88.264015
7420.898438	-89.011711
7421.875000	-87.584961
7422.851562	-87.167450
7423.828125	-87.861290
7424.804688	-87.389404
7425.781250	-88.168114
7426.757812	-88.214233
7427.734375	-88.510178
7428.710938	-88.061005
7429.687500	-87.641777
7430.664062	-88.242432
7431.640625	-87.695450
7432.617188	-88.341232
7433.593750	-88.744759
7434.570312	-88.231110
7435.546875	-88.318947
7436.523438	-88.028839
7437.500000	-88.477165
7438.476562	-87.426254
7439.453125	-87.988914
7440.429688	-87.895226
7441.406250	-88.283165
7442.382812	-88.273201
7443.359375	-87.952042
7444.335938	-88.194481
7445.312500	-88.205193
7446.289062	-87.808731
7447.265625	-87.427925
7448.242188	-87.817368
7449.218750	-88.021843
7450.195312	-88.327698
7451.171875	-89.218658
7452.148438	-88.652138
7453.125000	-89.010788
7454.101562	-88.384254
7455.078125	-89.690659
7456.054688	-88.364456
7457.031250	-88.769958
7458.007812	-89.161972
7458.984375	-88.613251
7459.960938	-88.007355
7460.937500	-88.188217
7461.914062	-87.988029
7462.890625	-88.033989
7463.867188	-88.976624
7464.843750	-88.545441
7465.820312	-88.564804
7466.796875	-88.442085
7467.773438	-89.348213
7468.750000	-88.485550
7469.726562	-89.108940
7470.703125	-89.349449
7471.679688	-88.032310
7472.656250	-88.054184
7473.632812	-88.483734
7474.609375	-88.065346
7475.585938	-89.016678
7476.562500	-89.236313
7477.539062	-89.067566
7478.515625	-89.242538
7479.492188	-89.403122
7480.468750	-89.684128
7481.445312	-88.845337
7482.421875	-88.425003
7483.398438	-89.623589
7484.375000	-88.884727
7485.351562	-89.399902
7486.328125	-89.251190
7487.304688	-89.102882
7488.281250	-88.597603
7489.257812	-88.717842
7490.234375	-89.111603
7491.210938	-88.618843
7492.187500	-89.671829
7493.164062	-89.831352
7494.140625	-89.125961
7495.117188	-88.977020
7496.093750	-89.629478
7497.070312	-88.902870
7498.046875	-89.899399
7499.023438	-89.516304
7500.000000	-89.364960
7500.976562	-90.410492
7501.953125	-90.054031
7502.929688	-89.849785
7503.906250	-89.309486
7504.882812	-89.580894
7505.859375	-89.012337
7506.835938	-89.505859
7507.812500	-89.752502
7508.789062	-89.676460
7509.765625	-89.465302
7510.742188	-90.136276
7511.718750	-89.492203
7512.695312	-89.120842
7513.671875	-89.624199
7514.648438	-90.418091
7515.625000	-89.589600
7516.601562	-90.054588
7517.578125	-89.071518
7518.554688	-89.352020
7519.531250	-89.049255
7520.507812	-89.574333
7521.484375	-90.288345
7522.460938	-90.041229
7523.437500	-89.790184
7524.414062	-89.898582
7525.390625	-90.076630
7526.367188	-89.477654
7527.343750	-89.679916
7528.320312	-89.812172
7529.296875	-90.367950
7530.273438	-89.857231
7531.250000	-89.780373
7532.226562	-90.861969
7533.203125	-89.883308
7534.179688	-90.065506
7535.156250	-89.823029
7536.132812	-90.601105
7537.109375	-89.577652
7538.085938	-89.828384
7539.062500	-89.914040
7540.039062	-90.273384
7541.015625	-89.705818
7541.992188	-89.876656
7542.968750	-89.996941
7543.945312	-90.030815
7544.921875	-89.988495
7545.898438	-89.889725
7546.875000	-90.577263
7547.851562	-89.927536
7548.828125	-89.805901
7549.804688	-90.553581
7550.781250	-89.754631
7551.757812	-89.572128
7552.734375	-90.412468
7553.710938	-90.306198
7554.687500	-90.368469
7555.664062	-90.457664
7556.640625	-90.366570
7557.617188	-90.035156
7558.593750	-90.478371
7559.570312	-90.812454
7560.546875	-89.893333
7561.523438	-89.975548
7562.500000	-90.693146
7563.476562	-90.482277
7564.453125	-90.726303
7565.429688	-90.183037
7566.406250	-90.593292
7567.382812	-90.554977
7568.359375	-90.069473
7569.335938	-90.300850
7570.312500	-91.086494
7571.289062	-90.978462
7572.265625	-90.277237
7573.242188	-90.645203
7574.218750	-90.399239
7575.195312	-90.659576
7576.171875	-90.245056
7577.148438	-90.685959
7578.125000	-90.393181
7579.101562	-91.020927
7580.078125	-90.337944
7581.054688	-90.161850
7582.031250	-90.542664
7583.007812	-90.286583
7583.984375	-90.665855
7584.960938	-90.701942
7585.937500	-90.555374
7586.914062	-90.364258
7587.890625	-90.717751
7588.867188	-90.736885
7589.843750	-90.921577
7590.820312	-90.600441
7591.796875	-90.674248
7592.773438	-90.462166
7593.750000	-90.811707
7594.726562	-90.734337
7595.703125	-90.384354
7596.679688	-90.350769
7597.656250	-90.633980
7598.632812	-91.187790
7599.609375	-90.490921
7600.585938	-91.035652
7601.562500	-90.918953
7602.539062	-90.420181
7603.515625	-90.667160
7604.492188	-90.400040
7605.468750	-90.931709
7606.445312	-90.396576
7607.421875	-90.432419
7608.398438	-90.641975
7609.375000	-90.600555
7610.351562	-90.555756
7611.328125	-90.422791
7612.304688	-90.527229
7613.281250	-90.766365
7614.257812	-90.917892
7615.234375	-91.250755
7616.210938	-90.700256
7617.187500	-90.768768
7618.164062	-91.256966
7619.140625	-90.845840
7620.117188	-90.918388
7621.093750	-90.672501
7622.070312	-90.591339
7623.046875	-90.558044
7624.023438	-90.711716
7625.000000	-90.561821
7625.976562	-90.926476
7626.953125	-91.477066
7627.929688	-91.004066
7628.906250	-90.778885
7629.882812	-90.844673
7630.859375	-90.544312
7631.835938	-90.662315
7632.812500	-91.139290
7633.789062	-90.749359
7634.765625	-90.899704
7635.742188	-90.758865
7636.718750	-90.960884
7637.695312	-90.988441
7638.671875	-90.700699
7639.648438	-90.666145
7640.625000	-90.957230
7641.601562	-90.821609
7642.578125	-90.930855
7643.554688	-91.043533
7644.531250	-90.715446
7645.507812	-91.044159
7646.484375	-90.910683
7647.460938	-91.136665
7648.437500	-90.792366
7649.414062	-90.976051
7650.390625	-91.041557
7651.367188	-91.027924
7652.343750	-91.058502
7653.320312	-91.211555
7654.296875	-91.099869
7655.273438	-91.061317
7656.250000	-91.039848
7657.226562	-91.060547
7658.203125	-90.880325
7659.179688	-91.047752
7660.156250	-91.113823
7661.132812	-91.221535
7662.109375	-91.170151
7663.085938	-90.991524
7664.062500	-91.047356
7665.039062	-91.057358
7666.015625	-91.033455
7666.992188	-91.202072
7667.968750	-91.086990
7668.945312	-91.261955
7669.921875	-91.153091
7670.898438	-91.080780
7671.875000	-91.113022
7672.851562	-91.230247
7673.828125	-91.176605
7674.804688	-91.062042
7675.781250	-91.176529
7676.757812	-91.020477
7677.734375	-91.151085
7678.710938	-90.937462
7679.687500	-91.101318
7680.664062	-91.106850
7681.640625	-91.198425
7682.617188	-91.407967
7683.593750	-91.156883
7684.570312	-91.036362
7685.546875	-91.193565
7686.523438	-91.307144
7687.500000	-91.185463
7688.476562	-91.143829
7689.453125	-91.112946
7690.429688	-91.226578
7691.406250	-91.177361
7692.382812	-91.236496
7693.359375	-91.341644
7694.335938	-91.324776
7695.312500	-91.268890
7696.289062	-91.368019
7697.265625	-91.333076
7698.242188	-91.331688
7699.218750	-91.321007
7700.195312	-91.204224
7701.171875	-91.154953
7702.148438	-91.281433
7703.125000	-91.267647
7704.101562	-91.298660
7705.078125	-91.230492
7706.054688	-91.432739
7707.031250	-91.300545
7708.007812	-91.278229
7708.984375	-91.259865
7709.960938	-91.244507
7710.937500	-91.341713
7711.914062	-91.281883
7712.890625	-91.222046
7713.867188	-91.290825
7714.843750	-91.277046
7715.820312	-91.270615
7716.796875	-91.227760
7717.773438	-91.420868
7718.750000	-91.267929
7719.726562	-91.375168
7720.703125	-91.297020
7721.679688	-91.350487
7722.656250	-91.339714
7723.632812	-91.258171
7724.609375	-91.328995
7725.585938	-91.235001
7726.562500	-91.298309
7727.539062	-91.289093
7728.515625	-91.356926
7729.492188	-91.344597
7730.468750	-91.268883
7731.445312	-91.279968
7732.421875	-91.391464
7733.398438	-91.368721
7734.375000	-91.327332
7735.351562	-91.371895
7736.328125	-91.357384
7737.304688	-91.363213
7738.281250	-91.350388
7739.257812	-91.364426
7740.234375	-91.366554
7741.210938	-91.411720
7742.187500	-91.364899
7743.164062	-91.334717
7744.140625	-91.428116
7745.117188	-91.323448
7746.093750	-91.385010
7747.070312	-91.353401
7748.046875	-91.417191
7749.023438	-91.341759
7750.000000	-91.392746
7750.976562	-91.345718
7751.953125	-91.374832
7752.929688	-91.362206
7753.906250	-91.381950
7754.882812	-91.373077
7755.859375	-91.362648
7756.835938	-91.420906
7757.812500	-91.368164
7758.789062	-91.391853
7759.765625	-91.338058
7760.742188	-91.372726
7761.718750	-91.415031
7762.695312	-91.348679
7763.671875	-91.370216
7764.648438	-91.395676
7765.625000	-91.407021
7766.601562	-91.401932
7767.578125	-91.392715
7768.554688	-91.394768
7769.531250	-91.400475
7770.507812	-91.411072
7771.484375	-91.413559
7772.460938	-91.417702
7773.437500	-91.412842
7774.414062	-91.408783
7775.390625	-91.397057
7776.367188	-91.440895
7777.343750	-91.412231
7778.320312	-91.399544
7779.296875	-91.401794
7780.273438	-91.407471
7781.250000	-91.415627
7782.226562	-91.409866
7783.203125	-91.402580
7784.179688	-91.433487
7785.156250	-91.410873
7786.132812	-91.434319
7787.109375	-91.418716
7788.085938	-91.431305
7789.062500	-91.420616
7790.039062	-91.424049
7791.015625	-91.416718
7791.992188	-91.430664
7792.968750	-91.430321
7793.945312	-91.436195
7794.921875	-91.438637
7795.898438	-91.453110
7796.875000	-91.450050
7797.851562	-91.447823
7798.828125	-91.438446
7799.804688	-91.436218
7800.781250	-91.447372
7801.757812	-91.445320
7802.734375	-91.454430
7803.710938	-91.450760
7804.687500	-91.448219
7805.664062	-91.448174
7806.640625	-91.448021
7807.617188	-91.460815
7808.593750	-91.449341
7809.570312	-91.451836
7810.546875	-91.454765
7811.523438	-91.458344
7812.500000	-91.456230
7813.476562	-91.452545
7814.453125	-91.455437
7815.429688	-91.461685
7816.406250	-91.460449
7817.382812	-91.461105
7818.359375	-91.462807
7819.335938	-91.462074
7820.312500	-91.461777
7821.289062	-91.465324
7822.265625	-91.463707
7823.242188	-91.467422
7824.218750	-91.472313
7825.195312	-91.468483
7826.171875	-91.470261
7827.148438	-91.473877
7828.125000	-91.473152
7829.101562	-91.473846
7830.078125	-91.472298
7831.054688	-91.476364
7832.031250	-91.476700
7833.007812	-91.477013
7833.984375	-91.478371
7834.960938	-91.480576
7835.937500	-91.479179
7836.914062	-91.480370
7837.890625	-91.483688
7838.867188	-91.482063
7839.843750	-91.484383
7840.820312	-91.484619
7841.796875	-91.483032
7842.773438	-91.486809
7843.750000	-91.486839
7844.726562	-91.488007
7845.703125	-91.489586
7846.679688	-91.490547
7847.656250	-91.492348
7848.632812	-91.491478
7849.609375	-91.492241
7850.585938	-91.494728
7851.562500	-91.494171
7852.539062	-91.495132
7853.515625	-91.495895
7854.492188	-91.497108
7855.468750	-91.497581
7856.445312	-91.498550
7857.421875	-91.498878
7858.398438	-91.501488
7859.375000	-91.501488
7860.351562	-91.501808
7861.328125	-91.502441
7862.304688	-91.502846
7863.281250	-91.503807
7864.257812	-91.504738
7865.234375	-91.505585
7866.210938	-91.506599
7867.187500	-91.507568
7868.164062	-91.508133
7869.140625	-91.508553
7870.117188	-91.508919
7871.093750	-91.509705
7872.070312	-91.510780
7873.046875	-91.511459
7874.023438	-91.511803
7875.000000	-91.512871
7875.976562	-91.513054
7876.953125	-91.514168
7877.929688	-91.514931
7878.906250	-91.515137
7879.882812	-91.516357
7880.859375	-91.516769
7881.835938	-91.517433
7882.812500	-91.518402
7883.789062	-91.518799
7884.765625	-91.519516
7885.742188	-91.520294
7886.718750	-91.520699
7887.695312	-91.521645
7888.671875	-91.522202
7889.648438	-91.522881
7890.625000	-91.523483
7891.601562	-91.523888
7892.578125	-91.524452
7893.554688	-91.525085
7894.531250	-91.525795
7895.507812	-91.526161
7896.484375	-91.526886
7897.460938	-91.527473
7898.437500	-91.528038
7899.414062	-91.528542
7900.390625	-91.529228
7901.367188	-91.529678
7902.343750	-91.530251
7903.320312	-91.530876
7904.296875	-91.531342
7905.273438	-91.531868
7906.250000	-91.532379
7907.226562	-91.532913
7908.203125	-91.533363
7909.179688	-91.533897
7910.156250	-91.534470
7911.132812	-91.534950
7912.109375	-91.535408
7913.085938	-91.535988
7914.062500	-91.536453
7915.039062	-91.536903
7916.015625	-91.537338
7916.992188	-91.537819
7917.968750	-91.538292
7918.945312	-91.538734
7919.921875	-91.539192
7920.898438	-91.539612
7921.875000	-91.540039
7922.851562	-91.540482
7923.828125	-91.540901
7924.804688	-91.541313
7925.781250	-91.541733
7926.757812	-91.542160
7927.734375	-91.542580
7928.710938	-91.542908
7929.687500	-91.543327
7930.664062	-91.543739
7931.640625	-91.544106
7932.617188	-91.544510
7933.593750	-91.544868
7934.570312	-91.545250
7935.546875	-91.545601
7936.523438	-91.545929
7937.500000	-91.546310
7938.476562	-91.546661
7939.453125	-91.547012
7940.429688	-91.547348
7941.406250	-91.547661
7942.382812	-91.547981
7943.359375	-91.548286
7944.335938	-91.548592
7945.312500	-91.548927
7946.289062	-91.549202
7947.265625	-91.549522
7948.242188	-91.549782
7949.218750	-91.550079
7950.195312	-91.550377
7951.171875	-91.550629
7952.148438	-91.550896
7953.125000	-91.551147
7954.101562	-91.551407
7955.078125	-91.551682
7956.054688	-91.551926
7957.031250	-91.552177
7958.007812	-91.552391
7958.984375	-91.552612
7959.960938	-91.552856
7960.937500	-91.553078
7961.914062	-91.553284
7962.890625	-91.553505
7963.867188	-91.553696
7964.843750	-91.553886
7965.820312	-91.554077
7966.796875	-91.554268
7967.773438	-91.554459
7968.750000	-91.554626
7969.726562	-91.554825
7970.703125	-91.554977
7971.679688	-91.555130
7972.656250	-91.555275
7973.632812	-91.555435
7974.609375	-91.555595
7975.585938	-91.555710
7976.562500	-91.555847
7977.539062	-91.555962
7978.515625	-91.556129
7979.492188	-91.556229
7980.468750	-91.556320
7981.445312	-91.556442
7982.421875	-91.556541
7983.398438	-91.556618
7984.375000	-91.556732
7985.351562	-91.556778
7986.328125	-91.556847
7987.304688	-91.556953
7988.281250	-91.557022
7989.257812	-91.557091
7990.234375	-91.557129
7991.210938	-91.557190
7992.187500	-91.557243
7993.164062	-91.557274
7994.140625	-91.557312
7995.117188	-91.557350
7996.093750	-91.557381
7997.070312	-91.557388
7998.046875	-91.557388
7999.023438	-91.557404
